#ti:19F RbTa2O5
##freq 800.072
##col_ Hz	Spectrum	Model	Line#1	Line#2
111770	-57.854	56.9386	0	0
111578	-71.9478	56.897	0	0
111385	-86.8101	56.8555	0	0
111192	-99.5083	56.8139	0	0
110999	-106.969	56.7723	0	0
110807	-106.73	56.7307	0	0
110614	-97.8724	56.6892	0	0
110421	-81.7371	56.6476	0	0
110228	-61.9489	56.606	0	0
110036	-43.5503	56.5644	0	0
109843	-31.4054	56.5228	0	0
109650	-28.4383	56.4813	0	0
109458	-34.436	56.4397	0	0
109265	-45.9918	56.3981	0	0
109072	-57.716	56.3565	0	0
108879	-64.283	56.3149	0	0
108687	-62.4843	56.2734	0	0
108494	-52.4023	56.2318	0	0
108301	-37.1754	56.1902	0	0
108108	-21.4446	56.1486	0	0
107916	-9.1731	56.1071	0	0
107723	-1.84762	56.0655	0	0
107530	2.08415	56.0239	0	0
107337	6.23802	55.9823	0	0
107145	14.204	55.9407	0	0
106952	27.3233	55.8992	0	0
106759	43.4329	55.8576	0	0
106566	57.2791	55.816	0	0
106374	62.5541	55.7744	0	0
106181	54.738	55.7328	0	0
105988	33.4898	55.6913	0	0
105795	3.45597	55.6497	0	0
105603	-26.9987	55.6081	0	0
105410	-48.7315	55.5665	0	0
105217	-55.276	55.5249	0	0
105024	-45.3811	55.4834	0	0
104832	-23.5522	55.4418	0	0
104639	1.6643	55.4002	0	0
104446	20.9641	55.3586	0	0
104253	27.7934	55.3171	0	0
104061	20.6594	55.2755	0	0
103868	3.34927	55.2339	0	0
103675	-16.9377	55.1923	0	0
103482	-32.6716	55.1507	0	0
103290	-38.9449	55.1092	0	0
103097	-35.0907	55.0676	0	0
102904	-24.4023	55.026	0	0
102712	-12.2471	54.9844	0	0
102519	-3.54327	54.9428	0	0
102326	-0.7623	54.9013	0	0
102133	-3.28615	54.8597	0	0
101941	-8.25195	54.8181	0	0
101748	-12.3145	54.7765	0	0
101555	-13.374	54.735	0	0
101362	-11.4184	54.6934	0	0
101170	-8.14635	54.6518	0	0
100977	-5.6902	54.6102	0	0
100784	-5.2192	54.5686	0	0
100591	-6.23653	54.5271	0	0
100399	-6.98525	54.4855	0	0
100206	-5.7457	54.4439	0	0
100013	-2.28075	54.4023	0	0
99820.4	1.458	54.3607	0	0
99627.6	1.91557	54.3192	0	0
99434.9	-4.30323	54.2776	0	0
99242.2	-18.2761	54.236	0	0
99049.4	-37.3217	54.1944	0	0
98856.7	-55.1724	54.1529	0	0
98663.9	-63.9709	54.1113	0	0
98471.2	-57.4242	54.0697	0	0
98278.4	-33.8113	54.0281	0	0
98085.7	2.548	53.9865	0	0
97893	42.2002	53.945	0	0
97700.2	73.6929	53.9034	0	0
97507.5	87.7941	53.8618	0	0
97314.7	81.0993	53.8202	0	0
97122	57.4927	53.7786	0	0
96929.3	26.7586	53.7371	0	0
96736.5	0.818675	53.6955	0	0
96543.8	-10.9243	53.6539	0	0
96351	-5.2476	53.6123	0	0
96158.3	13.7281	53.5708	0	0
95965.5	36.3476	53.5292	0	0
95772.8	51.4495	53.4876	0	0
95580.1	50.9452	53.446	0	0
95387.3	33.0729	53.4044	0	0
95194.6	3.02735	53.3629	0	0
95001.8	-29.22	53.3213	0	0
94809.1	-52.9331	53.2797	0	0
94616.3	-60.7585	53.2381	0	0
94423.6	-51.3204	53.1965	0	0
94230.9	-29.2988	53.155	0	0
94038.1	-3.1172	53.1134	0	0
93845.4	18.6472	53.0718	0	0
93652.6	30.5563	53.0302	0	0
93459.9	31.966	52.9887	0	0
93267.1	26.501	52.9471	0	0
93074.4	19.7861	52.9055	0	0
92881.7	16.5978	52.8639	0	0
92688.9	18.7636	52.8223	0	0
92496.2	24.6999	52.7808	0	0
92303.4	30.6644	52.7392	0	0
92110.7	32.9986	52.6976	0	0
91917.9	30.209	52.656	0	0
91725.2	23.8673	52.6144	0	0
91532.5	17.9077	52.5729	0	0
91339.7	16.683	52.5313	0	0
91147	22.7291	52.4897	0	0
90954.2	35.32	52.4481	0	0
90761.5	50.5208	52.4066	0	0
90568.7	62.7422	52.365	0	0
90376	67.1037	52.3234	0	0
90183.3	61.5376	52.2818	0	0
89990.5	47.6852	52.2402	0	0
89797.8	30.1829	52.1987	0	0
89605	14.6628	52.1571	0	0
89412.3	5.36282	52.1155	0	0
89219.5	3.40912	52.0739	0	0
89026.8	6.5205	52.0323	0	0
88834.1	10.2458	51.9908	0	0
88641.3	10.1635	51.9492	0	0
88448.6	4.0523	51.9076	0	0
88255.8	-6.93842	51.866	0	0
88063.1	-18.6453	51.8245	0	0
87870.3	-25.6331	51.7829	0	0
87677.6	-23.5827	51.7413	0	0
87484.9	-11.3101	51.6997	0	0
87292.1	8.44098	51.6581	0	0
87099.4	29.7771	51.6166	0	0
86906.6	45.701	51.575	0	0
86713.9	50.6195	51.5334	0	0
86521.2	42.341	51.4918	0	0
86328.4	22.816	51.4502	0	0
86135.7	-2.61302	51.4087	0	0
85942.9	-27.1129	51.3671	0	0
85750.2	-44.6559	51.3255	0	0
85557.4	-51.8615	51.2839	0	0
85364.7	-48.7576	51.2424	0	0
85172	-38.2879	51.2008	0	0
84979.2	-24.8607	51.1592	0	0
84786.5	-12.563	51.1176	0	0
84593.7	-3.7228	51.076	0	0
84401	1.68515	51.0345	0	0
84208.2	5.6521	50.9929	0	0
84015.5	10.9983	50.9513	0	0
83822.8	19.9718	50.9097	0	0
83630	33.1278	50.8681	0	0
83437.3	48.8951	50.8266	0	0
83244.5	63.9695	50.785	0	0
83051.8	74.3763	50.7434	0	0
82859	76.8197	50.7018	0	0
82666.3	69.8518	50.6602	0	0
82473.6	54.4621	50.6187	0	0
82280.8	33.8891	50.5771	0	0
82088.1	12.7115	50.5355	0	0
81895.3	-4.48782	50.4939	0	0
81702.6	-14.455	50.4524	0	0
81509.8	-16.1639	50.4108	0	0
81317.1	-10.9954	50.3692	0	0
81124.4	-2.14875	50.3276	0	0
80931.6	6.50095	50.286	0	0
80738.9	11.7015	50.2445	0	0
80546.1	11.8274	50.2029	0	0
80353.4	7.25387	50.1613	0	0
80160.6	-0.00495	50.1197	0	0
79967.9	-7.22192	50.0781	0	0
79775.2	-12.0751	50.0366	0	0
79582.4	-13.5262	49.995	0	0
79389.7	-12.1383	49.9534	0	0
79196.9	-9.75015	49.9118	0	0
79004.2	-8.68207	49.8703	0	0
78811.4	-10.8275	49.8287	0	0
78618.7	-17.0012	49.7871	0	0
78426	-26.7727	49.7455	0	0
78233.2	-38.783	49.7039	0	0
78040.5	-51.322	49.6624	0	0
77847.7	-62.8581	49.6208	0	0
77655	-72.2695	49.5792	0	0
77462.2	-78.731	49.5376	0	0
77269.5	-81.4167	49.496	0	0
77076.8	-79.3128	49.4545	0	0
76884	-71.3861	49.4129	0	0
76691.3	-57.1557	49.3713	0	0
76498.5	-37.4521	49.3297	0	0
76305.8	-14.9547	49.2882	0	0
76113.1	5.90433	49.2466	0	0
75920.3	19.8635	49.205	0	0
75727.6	22.416	49.1634	0	0
75534.8	11.5361	49.1218	0	0
75342.1	-11.1428	49.0803	0	0
75149.3	-40.2722	49.0387	0	0
74956.6	-68.0504	48.9971	0	0
74763.9	-86.4828	48.9555	0	0
74571.1	-89.8988	48.9139	0	0
74378.4	-76.8217	48.8724	0	0
74185.6	-50.4887	48.8308	0	0
73992.9	-17.8051	48.7892	0	0
73800.1	12.8985	48.7476	0	0
73607.4	34.4855	48.7061	0	0
73414.7	43.0696	48.6645	0	0
73221.9	38.812	48.6229	1.4013e-45	0
73029.2	25.2775	48.5813	1.4013e-45	0
72836.4	7.72837	48.5397	4.2039e-45	0
72643.7	-8.8901	48.4982	8.40779e-45	0
72450.9	-21.477	48.4566	1.82169e-44	0
72258.2	-29.303	48.415	3.92364e-44	0
72065.5	-33.5008	48.3734	8.54792e-44	0
71872.7	-35.9203	48.3318	1.87774e-43	0
71680	-37.9718	48.2903	4.1058e-43	0
71487.2	-39.9922	48.2487	8.91226e-43	0
71294.5	-41.3489	48.2071	1.93239e-42	0
71101.7	-41.1015	48.1655	4.17587e-42	0
70909	-38.7747	48.124	8.99774e-42	0
70716.3	-34.7815	48.0824	1.93239e-41	0
70523.5	-30.2623	48.0408	4.13803e-41	0
70330.8	-26.448	47.9992	8.83407e-41	0
70138	-23.9388	47.9576	1.88029e-40	0
69945.3	-22.3477	47.9161	3.99004e-40	0
69752.5	-20.5663	47.8745	8.44145e-40	0
69559.8	-17.5643	47.8329	1.78051e-39	0
69367.1	-13.3039	47.7913	3.74422e-39	0
69174.3	-9.22735	47.7497	7.84994e-39	0
68981.6	-7.93532	47.7082	1.64081e-38	0
68788.8	-12.0618	47.6666	3.41933e-38	0
68596.1	-22.7856	47.625	7.10413e-38	0
68403.3	-38.6842	47.5834	1.47153e-37	0
68210.6	-55.5789	47.5419	3.03889e-37	0
68017.9	-67.637	47.5003	6.25677e-37	0
67825.1	-69.4385	47.4587	1.28432e-36	0
67632.4	-58.2304	47.4171	2.62836e-36	0
67439.6	-35.4129	47.3755	5.36272e-36	0
67246.9	-6.5374	47.334	1.09087e-35	0
67054.1	20.3311	47.2924	2.21233e-35	0
66861.4	37.3536	47.2508	4.47316e-35	0
66668.7	39.7321	47.2092	9.01711e-35	0
66475.9	27.4903	47.1676	1.81221e-34	0
66283.2	5.49042	47.1261	3.63111e-34	0
66090.4	-18.3491	47.0845	7.25366e-34	0
65897.7	-35.9449	47.0429	1.44465e-33	0
65705	-41.9151	47.0013	2.86852e-33	0
65512.2	-35.3041	46.9598	5.6786e-33	0
65319.5	-19.5337	46.9182	1.12076e-32	1.4013e-45
65126.7	-0.67895	46.8766	2.20533e-32	1.4013e-45
64934	15.1493	46.835	4.32635e-32	4.2039e-45
64741.2	24.2	46.7934	8.4617e-32	8.40779e-45
64548.5	26.2773	46.7519	1.64999e-31	1.96182e-44
64355.8	24.3053	46.7103	3.20772e-31	4.48416e-44
64163	22.5437	46.6687	6.21724e-31	1.00893e-43
63970.3	24.3018	46.6271	1.2014e-30	2.2701e-43
63777.5	30.1885	46.5855	2.31454e-30	5.04467e-43
63584.8	37.6716	46.544	4.44562e-30	1.12244e-42
63392	42.133	46.5024	8.51308e-30	2.48871e-42
63199.3	38.9527	46.4608	1.62529e-29	5.4987e-42
63006.6	25.7178	46.4192	3.09358e-29	1.211e-41
62813.8	3.60855	46.3776	5.87059e-29	2.65798e-41
62621.1	-22.6331	46.3361	1.11068e-28	5.81469e-41
62428.3	-46.1558	46.2945	2.09501e-28	1.26789e-40
62235.6	-60.3022	46.2529	3.93977e-28	2.75561e-40
62042.8	-60.8747	46.2113	7.3866e-28	5.96936e-40
61850.1	-47.523	46.1698	1.38072e-27	1.28888e-39
61657.4	-23.787	46.1282	2.5731e-27	2.7738e-39
61464.6	4.1399	46.0866	4.78073e-27	5.94993e-39
61271.9	29.4056	46.045	8.85566e-27	1.27211e-38
61079.1	46.5075	46.0034	1.63544e-26	2.7109e-38
60886.4	52.6548	45.9619	3.0112e-26	5.75806e-38
60693.6	48.1389	45.9203	5.52752e-26	1.21903e-37
60500.9	35.7593	45.8787	1.0116e-25	2.57235e-37
60308.2	19.6628	45.8371	1.84578e-25	5.4103e-37
60115.4	4.07107	45.7955	3.35765e-25	1.13419e-36
59922.7	-7.70272	45.754	6.08948e-25	2.3699e-36
59729.9	-13.7553	45.7124	1.10107e-24	4.93568e-36
59537.2	-13.6289	45.6708	1.98488e-24	1.02457e-35
59344.4	-8.03982	45.6292	3.56734e-24	2.11987e-35
59151.7	1.51937	45.5877	6.3921e-24	4.37172e-35
58959	13.1805	45.5461	1.14191e-23	8.98612e-35
58766.2	25.0556	45.5045	2.03378e-23	1.84106e-34
58573.5	35.5477	45.4629	3.61134e-23	3.75957e-34
58380.7	43.5998	45.4213	6.39322e-23	7.65218e-34
58188	48.8321	45.3798	1.12839e-22	1.55241e-33
57995.2	51.4959	45.3382	1.98558e-22	3.1391e-33
57802.5	52.2138	45.2966	3.48341e-22	6.32672e-33
57609.8	51.5657	45.255	6.0927e-22	1.27095e-32
57417	49.6826	45.2134	1.06244e-21	2.54479e-32
57224.3	46.0554	45.1719	1.84708e-21	5.0787e-32
57031.5	39.7094	45.1303	3.20151e-21	1.01025e-31
56838.8	29.7427	45.0887	5.53239e-21	2.00299e-31
56646	16.0386	45.0471	9.53146e-21	3.95828e-31
56453.3	-0.171975	45.0056	1.63717e-20	7.79667e-31
56260.6	-16.2212	44.964	2.80361e-20	1.53069e-30
56067.8	-28.5488	44.9224	4.78663e-20	2.9953e-30
55875.1	-33.778	44.8808	8.1476e-20	5.84212e-30
55682.3	-29.957	44.8392	1.38267e-19	1.13573e-29
55489.6	-17.472	44.7977	2.33935e-19	2.20068e-29
55296.8	0.79305	44.7561	3.94602e-19	4.25023e-29
55104.1	20.2062	44.7145	6.6361e-19	8.18171e-29
54911.4	35.8431	44.6729	1.11264e-18	1.56983e-28
54718.6	44.1388	44.6313	1.85988e-18	3.00216e-28
54525.9	44.1124	44.5898	3.09958e-18	5.72259e-28
54333.1	37.6756	44.5482	5.15003e-18	1.08724e-27
54140.4	28.8812	44.5066	8.53109e-18	2.05891e-27
53947.7	22.3769	44.465	1.40893e-17	3.88617e-27
53754.9	21.6472	44.4235	2.31985e-17	7.31111e-27
53562.2	27.7104	44.3819	3.8082e-17	1.37094e-26
53369.4	38.7592	44.3403	6.23258e-17	2.56231e-26
53176.7	50.8624	44.2987	1.01696e-16	4.77331e-26
52983.9	59.4357	44.2571	1.65436e-16	8.86305e-26
52791.2	60.9045	44.2156	2.68314e-16	1.6403e-25
52598.5	53.9328	44.174	4.33855e-16	3.02578e-25
52405.7	39.7906	44.1324	6.99415e-16	5.56323e-25
52213	21.7833	44.0908	1.12412e-15	1.01951e-24
52020.2	4.02277	44.0492	1.80127e-15	1.86223e-24
51827.5	-9.954	44.0077	2.87763e-15	3.3904e-24
51634.7	-18.2092	43.9661	4.5833e-15	6.15239e-24
51442	-20.747	43.9245	7.27797e-15	1.11279e-23
51249.3	-19.1445	43.8829	1.15221e-14	2.00612e-23
51056.5	-15.7115	43.8414	1.81861e-14	3.60475e-23
50863.8	-12.5546	43.7998	2.86177e-14	6.4561e-23
50671	-10.9005	43.7582	4.48973e-14	1.1525e-22
50478.3	-10.8675	43.7166	7.02253e-14	2.05063e-22
50285.5	-11.6715	43.675	1.0951e-13	3.63671e-22
50092.8	-12.0891	43.6335	1.70257e-13	6.42845e-22
49900.1	-10.9491	43.5919	2.63903e-13	1.13261e-21
49707.3	-7.4737	43.5503	4.07822e-13	1.98897e-21
49514.6	-1.41188	43.5087	6.28327e-13	3.48139e-21
49321.8	6.98542	43.4671	9.65137e-13	6.07368e-21
49129.1	17.0472	43.4256	1.47802e-12	1.05615e-20
48936.3	27.7427	43.384	2.25663e-12	1.83054e-20
48743.6	37.7172	43.3424	3.43502e-12	3.16231e-20
48550.9	45.3654	43.3008	5.21298e-12	5.44512e-20
48358.1	49.0287	43.2593	7.88735e-12	9.34512e-20
48165.4	47.3525	43.2177	1.18977e-11	1.5986e-19
47972.6	39.7487	43.1761	1.78931e-11	2.72563e-19
47779.9	26.8168	43.1345	2.68285e-11	4.63204e-19
47587.1	10.5361	43.0929	4.01047e-11	7.84607e-19
47394.4	-5.91663	43.0514	5.97698e-11	1.32467e-18
47201.7	-18.7563	43.0098	8.8809e-11	2.22915e-18
47008.9	-24.4732	42.9682	1.31559e-10	3.73892e-18
46816.2	-20.7783	42.9266	1.943e-10	6.25071e-18
46623.4	-7.32767	42.885	2.86096e-10	1.04157e-17
46430.7	14.0086	42.8435	4.19992e-10	1.7299e-17
46237.9	39.4438	42.8019	6.14692e-10	2.86372e-17
46045.2	64.0854	42.7603	8.96938e-10	4.72515e-17
45852.5	83.0561	42.7187	1.30484e-09	7.77099e-17
45659.7	92.6317	42.6772	1.89251e-09	1.27383e-16
45467	91.0959	42.6356	2.73658e-09	2.08125e-16
45274.2	79.0903	42.594	3.94518e-09	3.38931e-16
45081.5	59.3708	42.5524	5.67039e-09	5.50142e-16
44888.7	36.0473	42.5108	8.12547e-09	8.90048e-16
44696	13.5187	42.4693	1.16084e-08	1.43525e-15
44503.3	-4.59637	42.4277	1.65342e-08	2.30684e-15
44310.5	-16.2366	42.3861	2.34792e-08	3.69558e-15
44117.8	-21.1697	42.3445	3.32409e-08	5.90098e-15
43925	-20.7058	42.3029	4.6919e-08	9.39162e-15
43732.3	-16.9763	42.2614	6.60259e-08	1.48982e-14
43539.6	-12.0526	42.2198	9.26334e-08	2.3556e-14
43346.8	-7.23377	42.1782	1.29572e-07	3.71231e-14
43154.1	-2.77192	42.1366	1.80692e-07	5.83127e-14
42961.3	1.86885	42.0951	2.51222e-07	9.12973e-14
42768.6	7.34555	42.0535	3.48229e-07	1.42472e-13
42575.8	13.6749	42.0119	4.81238e-07	2.21602e-13
42383.1	19.7593	41.9703	6.63046e-07	3.43554e-13
42190.4	23.485	41.9287	9.10785e-07	5.30875e-13
41997.6	22.4425	41.8872	1.24731e-06	8.17646e-13
41804.9	15.0284	41.8456	1.70304e-06	1.2552e-12
41612.1	1.47035	41.804	2.31825e-06	1.9206e-12
41419.4	-15.7235	41.7624	3.1462e-06	2.92912e-12
41226.6	-32.2043	41.7208	4.25696e-06	4.45258e-12
41033.9	-43.0782	41.6793	5.74251e-06	6.74625e-12
40841.2	-44.6418	41.6377	7.72311e-06	1.0188e-11
40648.4	-35.8908	41.5961	1.03555e-05	1.53352e-11
40455.7	-19.1534	41.5545	1.38432e-05	2.30074e-11
40262.9	0.511075	41.513	1.84498e-05	3.4405e-11
40070.2	17.0223	41.4714	2.45152e-05	5.12802e-11
39877.4	25.5023	41.4298	3.24764e-05	7.61823e-11
39684.7	24.1548	41.3883	4.28932e-05	1.12806e-10
39492	15.0241	41.3467	5.64803e-05	1.6649e-10
39299.2	3.27217	41.3051	7.4147e-05	2.44918e-10
39106.5	-4.79735	41.2636	9.70463e-05	3.5911e-10
38913.7	-4.21237	41.222	0.000126635	5.24819e-10
38721	6.68675	41.1805	0.000164746	7.64482e-10
38528.2	25.5712	41.139	0.00021368	1.10994e-09
38335.5	47.0423	41.0974	0.000276314	1.60624e-09
38142.8	64.7699	41.0559	0.00035623	2.31683e-09
37950	73.9595	41.0145	0.000457873	3.33085e-09
37757.3	73.1123	40.973	0.000586744	4.77299e-09
37564.5	64.3413	40.9316	0.000749619	6.81713e-09
37371.8	52.1388	40.8902	0.000954819	9.70485e-09
37179	41.1709	40.8489	0.00121252	1.37706e-08
36986.3	34.1146	40.8076	0.00153513	1.94756e-08
36793.6	30.5428	40.7665	0.00193772	2.74539e-08
36600.8	27.3974	40.7254	0.00243851	3.85739e-08
36408.1	20.8623	40.6844	0.00305948	5.40205e-08
36215.3	8.78352	40.6436	0.00382699	7.54048e-08
36022.6	-7.524	40.603	0.00477261	1.0491e-07
35829.8	-23.025	40.5626	0.00593394	1.45481e-07
35637.1	-30.5568	40.5224	0.0073556	2.01083e-07
35444.4	-23.7277	40.4826	0.00909038	2.77024e-07
35251.6	0.05505	40.4431	0.0112004	3.80396e-07
35058.9	37.7546	40.4041	0.0137586	5.20632e-07
34866.1	80.9781	40.3656	0.0168501	7.10232e-07
34673.4	118.43	40.3277	0.020574	9.65708e-07
34480.6	139.705	40.2906	0.0250452	1.30878e-06
34287.9	138.986	40.2544	0.0303962	1.76792e-06
34095.2	117.193	40.2192	0.0367791	2.38032e-06
33902.4	81.6973	40.1852	0.0443681	3.19436e-06
33709.7	43.6625	40.1526	0.0533617	4.27275e-06
33516.9	14.025	40.1217	0.0639848	5.69648e-06
33324.2	-0.35335	40.0926	0.0764913	7.56974e-06
33131.5	1.10695	40.0657	0.0911665	1.00261e-05
32938.7	12.9405	40.0413	0.10833	1.3236e-05
32746	26.1572	40.0197	0.128336	1.74164e-05
32553.2	32.0021	40.0014	0.151578	2.28421e-05
32360.5	25.4674	39.9867	0.17849	2.98599e-05
32167.7	7.22117	39.9762	0.209546	3.8906e-05
31975	-16.7113	39.9704	0.245263	5.05267e-05
31782.3	-37.285	39.9698	0.286203	6.54034e-05
31589.5	-45.8091	39.975	0.33297	8.4383e-05
31396.8	-37.0506	39.9866	0.38621	0.000108514
31204	-10.9645	40.0055	0.446612	0.000139089
31011.3	27.4498	40.0323	0.514903	0.000177695
30818.5	69.9279	40.0677	0.591847	0.000226272
30625.8	107.557	40.1125	0.678237	0.000287187
30433.1	133.24	40.1677	0.774893	0.000363307
30240.3	143.236	40.234	0.882654	0.000458097
30047.6	137.472	40.3122	1.00237	0.000575728
29854.8	118.819	40.4033	1.13489	0.000721196
29662.1	91.8553	40.5081	1.28105	0.000900459
29469.3	61.6458	40.6273	1.44168	0.0011206
29276.6	32.8962	40.7619	1.61755	0.00138999
29083.9	9.50408	40.9125	1.80941	0.00171851
28891.1	-5.66348	41.0798	2.01792	0.0021177
28698.4	-10.9911	41.2645	2.24367	0.00260108
28505.6	-6.41765	41.467	2.48716	0.00318433
28312.9	6.30477	41.6877	2.74875	0.0038856
28120.1	23.6538	41.9269	3.0287	0.00472579
27927.4	40.9094	42.1847	3.32709	0.00572883
27734.7	53.269	42.4611	3.64386	0.00692202
27541.9	57.2336	42.7558	3.97875	0.00833635
27349.2	51.7771	43.0685	4.33133	0.0100068
27156.4	38.804	43.3985	4.70092	0.0119726
26963.7	22.6188	43.745	5.08667	0.0142777
26770.9	8.5153	44.1069	5.48747	0.0169708
26578.2	0.966275	44.483	5.902	0.0201059
26385.5	2.0888	44.8717	6.3287	0.0237421
26192.7	10.9822	45.2714	6.76578	0.0279442
26000	24.1981	45.6802	7.21124	0.0327823
25807.2	37.1475	46.0957	7.66286	0.0383321
25614.5	45.8723	46.5158	8.11819	0.0446746
25421.7	48.4667	46.9379	8.57465	0.0518962
25229	45.5919	47.3594	9.02946	0.0600876
25036.3	39.9172	47.7773	9.47972	0.0693443
24843.5	34.7714	48.1888	9.92242	0.0797649
24650.8	32.6077	48.591	10.3545	0.091451
24458	33.9417	48.9808	10.7728	0.104506
24265.3	37.1987	49.3551	11.1741	0.119033
24072.5	39.5007	49.711	11.5555	0.135136
23879.8	38.0238	50.0456	11.9139	0.152915
23687.1	31.3222	50.356	12.2463	0.172467
23494.3	20.0455	50.6395	12.5501	0.193882
23301.6	6.75045	50.8938	12.8226	0.217241
23108.8	-5.10768	51.1165	13.0615	0.242619
22916.1	-12.5727	51.3056	13.2647	0.270073
22723.4	-14.3952	51.4594	13.4305	0.29965
22530.6	-11.5589	51.5764	13.5573	0.331377
22337.9	-6.91932	51.6554	13.6441	0.365263
22145.1	-4.1009	51.6958	13.69	0.401297
21952.4	-6.08222	51.697	13.6946	0.439441
21759.6	-14	51.659	13.6579	0.479636
21566.9	-26.6036	51.5819	13.5803	0.521792
21374.2	-40.5398	51.4664	13.4623	0.565796
21181.4	-51.3495	51.3134	13.3052	0.611501
20988.7	-54.8243	51.124	13.1102	0.658734
20795.9	-48.2774	50.8999	12.8791	0.707293
20603.2	-31.3412	50.6429	12.614	0.756943
20410.4	-6.08327	50.3548	12.317	0.807427
20217.7	23.5478	50.038	11.9908	0.858458
20025	52.7416	49.6949	11.638	0.909725
19832.2	76.9906	49.3281	11.2615	0.960897
19639.5	93.0752	48.94	10.8644	1.01162
19446.7	99.6223	48.5336	10.4496	1.06154
19254	97.1352	48.1115	10.0204	1.11028
19061.2	87.552	47.6765	9.5798	1.15744
18868.5	73.5187	47.2314	9.13097	1.20266
18675.8	57.6373	46.7786	8.67693	1.24556
18483	41.9278	46.3209	8.22059	1.28576
18290.3	27.6528	45.8607	7.76477	1.32292
18097.5	15.4997	45.4002	7.3121	1.35669
17904.8	5.96657	44.9417	6.86506	1.38676
17712	-0.289025	44.487	6.42592	1.41286
17519.3	-2.3717	44.0381	5.99672	1.43474
17326.6	0.557575	43.5966	5.57932	1.45219
17133.8	8.70177	43.1639	5.17531	1.46504
16941.1	21.0339	42.7412	4.78609	1.47316
16748.3	35.0375	42.3296	4.41278	1.47648
16555.6	47.0483	41.9301	4.05633	1.47495
16362.8	53.2323	41.5432	3.71742	1.46861
16170.1	50.9313	41.1697	3.39656	1.4575
15977.4	39.8722	40.8098	3.09403	1.44174
15784.6	22.6834	40.4639	2.80995	1.42148
15591.9	4.36005	40.1321	2.54426	1.39692
15399.1	-9.28813	39.8143	2.29674	1.36829
15206.4	-13.7264	39.5106	2.06705	1.33585
15013.6	-7.539	39.2208	1.85472	1.29992
14820.9	6.76195	38.9445	1.65918	1.2608
14628.2	23.4176	38.6816	1.47978	1.21887
14435.4	35.4763	38.4317	1.3158	1.17446
14242.7	37.516	38.1943	1.16646	1.12797
14049.9	27.9796	37.969	1.03095	1.07978
13857.2	10.129	37.7554	0.90844	1.03025
13664.4	-8.88947	37.553	0.798071	0.979782
13471.7	-20.6353	37.3612	0.698997	0.928734
13279	-18.6851	37.1798	0.610376	0.877462
13086.2	-1.3712	37.008	0.531384	0.826306
12893.5	27.1933	36.8456	0.461219	0.775585
12700.7	58.3086	36.6919	0.399112	0.725594
12508	81.7283	36.5466	0.344326	0.676602
12315.3	89.4129	36.4091	0.296165	0.628852
12122.5	78.535	36.279	0.253972	0.582558
11929.8	52.5412	36.1559	0.217134	0.537905
11737	19.8314	36.0394	0.185078	0.495048
11544.3	-9.4273	35.9291	0.15728	0.454114
11351.5	-27.0872	35.8246	0.133254	0.415201
11158.8	-29.9021	35.7255	0.112557	0.378379
10966.1	-20.3839	35.6315	0.0947883	0.343693
10773.3	-5.35295	35.5422	0.079584	0.311165
10580.6	7.14887	35.4572	0.0666169	0.280793
10387.8	11.2537	35.3764	0.0555945	0.252556
10195.1	5.55557	35.2994	0.0462559	0.226415
10002.3	-6.61972	35.2258	0.03837	0.202315
9809.6	-18.9918	35.1554	0.0317325	0.180188
9616.85	-25.3049	35.0881	0.026164	0.159955
9424.11	-22.177	35.0234	0.0215077	0.14153
9231.37	-10.5806	34.9612	0.0176267	0.124817
9038.63	4.64803	34.9013	0.0144024	0.109717
8845.88	17.0021	34.8435	0.0117325	0.0961278
8653.14	21.1893	34.7875	0.00952867	0.0839461
8460.4	15.4246	34.7333	0.00771548	0.0730681
8267.66	2.14235	34.6805	0.00622848	0.0633914
8074.91	-13.1384	34.6291	0.0050129	0.0548162
7882.17	-24.2373	34.579	0.0040224	0.0472458
7689.43	-26.9137	34.53	0.00321787	0.0405875
7496.69	-20.496	34.4819	0.0025665	0.0347534
7303.94	-7.8587	34.4347	0.00204081	0.0296605
7111.2	6.16075	34.3883	0.0016179	0.025231
6918.46	17.111	34.3425	0.00127876	0.0213928
6725.71	22.9206	34.2973	0.00100766	0.018079
6532.97	24.6151	34.2527	0.000791641	0.0152285
6340.23	25.4571	34.2085	0.000620055	0.0127855
6147.49	28.9624	34.1647	0.000484196	0.0106992
5954.74	36.7855	34.1213	0.000376964	0.00892403
5762	47.5289	34.0781	0.000292595	0.00741902
5569.26	57.1055	34.0352	0.000226424	0.00614763
5376.52	60.5418	33.9925	0.00017469	0.00507744
5183.77	54.414	33.95	0.000134369	0.00417981
4991.03	38.7695	33.9076	0.000103043	0.00342961
4798.29	17.577	33.8654	7.87824e-05	0.00280484
4605.55	-2.61212	33.8232	6.00519e-05	0.00228638
4412.8	-15.2961	33.7812	4.56365e-05	0.00185764
4220.06	-16.8358	33.7393	3.45769e-05	0.00150436
4027.32	-8.1967	33.6974	2.61185e-05	0.00121428
3834.58	5.21962	33.6556	1.96698e-05	0.000976923
3641.83	15.6894	33.6138	1.47686e-05	0.000783389
3449.09	16.416	33.5721	1.10552e-05	0.000626139
3256.35	4.58142	33.5304	8.25052e-06	0.000498814
3063.61	-17.1033	33.4887	6.13883e-06	0.00039608
2870.86	-41.0667	33.447	4.55384e-06	0.000313475
2678.12	-57.5822	33.4054	3.3679e-06	0.000247285
2485.38	-58.4861	33.3637	2.48329e-06	0.000194432
2292.64	-40.4516	33.3221	1.82551e-06	0.000152375
2099.89	-6.51557	33.2805	1.33792e-06	0.000119025
1907.15	34.7659	33.2389	9.77609e-07	9.2669e-05
1714.41	72.2331	33.1973	7.12176e-07	7.19131e-05
1521.66	96.0081	33.1557	5.17247e-07	5.56233e-05
1328.92	100.895	33.1141	3.74539e-07	4.28826e-05
1136.18	88.0485	33.0725	2.70386e-07	3.29519e-05
943.437	64.3575	33.0309	1.94608e-07	2.52381e-05
750.694	39.8425	32.9893	1.39645e-07	1.92667e-05
557.952	24.0991	32.9478	9.99026e-08	1.466e-05
365.209	23.0913	32.9062	7.12554e-08	1.11183e-05
172.466	37.397	32.8646	5.06695e-08	8.40456e-06
-20.2761	62.3964	32.823	3.59223e-08	6.33241e-06
-213.019	90.1636	32.7814	2.53904e-08	4.75552e-06
-405.761	112.246	32.7399	1.78922e-08	3.55961e-06
-598.504	122.296	32.6983	1.25703e-08	2.65573e-06
-791.247	117.71	32.6567	8.80476e-09	1.97487e-06
-983.989	99.8835	32.6151	6.1486e-09	1.46376e-06
-1176.73	73.2542	32.5735	4.28079e-09	1.08138e-06
-1369.47	43.6678	32.532	2.97139e-09	7.96271e-07
-1562.22	16.7407	32.4904	2.05629e-09	5.84412e-07
-1754.96	-3.2807	32.4488	1.41872e-09	4.27517e-07
-1947.7	-13.9804	32.4072	9.75882e-10	3.11719e-07
-2140.44	-14.6925	32.3656	6.69249e-10	2.26542e-07
-2333.19	-6.19317	32.3241	4.5758e-10	1.641e-07
-2525.93	9.55048	32.2825	3.11916e-10	1.1848e-07
-2718.67	29.475	32.2409	2.11983e-10	8.52624e-08
-2911.42	49.4866	32.1993	1.43638e-10	6.11569e-08
-3104.16	64.7568	32.1578	9.70417e-11	4.37228e-08
-3296.9	70.4651	32.1162	6.53758e-11	3.11564e-08
-3489.64	62.9933	32.0746	4.39293e-11	2.2129e-08
-3682.39	41.291	32.033	2.94599e-11	1.56658e-08
-3875.13	7.90732	31.9914	1.97453e-11	1.10539e-08
-4067.87	-30.8468	31.9499	1.32704e-11	7.77425e-09
-4260.61	-65.9341	31.9083	9.01113e-12	5.44974e-09
-4453.36	-87.7514	31.8667	6.28565e-12	3.80775e-09
-4646.1	-88.894	31.8251	4.65407e-12	2.65177e-09
-4838.84	-66.6718	31.7835	3.85344e-12	1.84069e-09
-5031.58	-24.484	31.742	3.75905e-12	1.2735e-09
-5224.33	28.5686	31.7004	4.36695e-12	8.782e-10
-5417.07	79.9031	31.6588	5.79564e-12	6.03621e-10
-5609.81	116.946	31.6172	8.30748e-12	4.13533e-10
-5802.55	130.841	31.5757	1.23535e-11	2.82379e-10
-5995.3	119.161	31.5341	1.86485e-11	1.92189e-10
-6188.04	86.6623	31.4925	2.82883e-11	1.30377e-10
-6380.78	43.7512	31.4509	4.29259e-11	8.81557e-11
-6573.52	3.10737	31.4093	6.50341e-11	5.9412e-11
-6766.27	-24.4317	31.3678	9.82909e-11	3.99093e-11
-6959.01	-33.3112	31.3262	1.48144e-10	2.67208e-11
-7151.75	-24.8133	31.2846	2.22634e-10	1.7832e-11
-7344.49	-6.1599	31.243	3.33585e-10	1.18611e-11
-7537.24	12.5208	31.2014	4.98331e-10	7.86374e-12
-7729.98	22.2528	31.1599	7.42201e-10	5.19646e-12
-7922.72	18.7764	31.1183	1.10208e-09	3.42265e-12
-8115.47	4.25365	31.0767	1.63154e-09	2.24697e-12
-8308.21	-13.5763	31.0351	2.40806e-09	1.47033e-12
-8500.95	-24.5159	30.9936	3.54345e-09	9.59017e-13
-8693.69	-20.139	30.952	5.19846e-09	6.2354e-13
-8886.44	2.50425	30.9104	7.60344e-09	4.0421e-13
-9079.18	39.1879	30.8688	1.10875e-08	2.61368e-13
-9271.92	79.5691	30.8272	1.61193e-08	1.68774e-13
-9464.66	110.707	30.7857	2.3364e-08	1.09156e-13
-9657.41	121.777	30.7441	3.37627e-08	7.12277e-14
-9850.15	108.208	30.7025	4.86424e-08	4.77168e-14
-10042.9	73.6511	30.6609	6.98684e-08	3.40725e-14
-10235.6	28.9615	30.6193	1.00054e-07	2.76507e-14
-10428.4	-11.4871	30.5778	1.42849e-07	2.72412e-14
-10621.1	-34.8259	30.5362	2.03333e-07	3.28603e-14
-10813.9	-34.1999	30.4946	2.88555e-07	4.57753e-14
-11006.6	-11.0929	30.453	4.08259e-07	6.87723e-14
-11199.3	25.381	30.4115	5.7588e-07	1.06718e-13
-11392.1	61.9279	30.3699	8.09871e-07	1.67519e-13
-11584.8	85.9567	30.3283	1.1355e-06	2.63662e-13
-11777.6	90.0736	30.2867	1.58727e-06	4.14597e-13
-11970.3	74.553	30.2451	2.21207e-06	6.50401e-13
-12163.1	46.947	30.2036	3.07352e-06	1.01735e-12
-12355.8	19.0798	30.162	4.25758e-06	1.58634e-12
-12548.5	2.6197	30.1204	5.88e-06	2.46559e-12
-12741.3	4.89105	30.0788	8.09617e-06	3.81971e-12
-12934	26.4058	30.0373	1.1114e-05	5.89821e-12
-13126.8	60.8907	29.9957	1.52107e-05	9.07794e-12
-13319.5	97.6373	29.9541	2.07548e-05	1.39261e-11
-13512.3	125.198	29.9125	2.82341e-05	2.12936e-11
-13705	135.065	29.871	3.82929e-05	3.24521e-11
-13897.7	124.118	29.8294	5.17786e-05	4.92962e-11
-14090.5	95.1707	29.7878	6.98026e-05	7.46378e-11
-14283.2	55.6967	29.7463	9.38169e-05	1.12637e-10
-14476	15.3588	29.7047	0.000125713	1.69425e-10
-14668.7	-16.7128	29.6632	0.000167944	2.54009e-10
-14861.5	-34.0799	29.6217	0.000223686	3.79575e-10
-15054.2	-34.1113	29.5802	0.000297031	5.65355e-10
-15246.9	-18.0067	29.5387	0.000393236	8.39306e-10
-15439.7	10.0066	29.4972	0.00051903	1.24193e-09
-15632.4	43.9117	29.4558	0.000682999	1.83166e-09
-15825.2	77.2303	29.4145	0.000896058	2.6926e-09
-16017.9	104.229	29.3732	0.00117203	3.94524e-09
-16210.7	120.902	29.3319	0.00152839	5.7617e-09
-16403.4	125.642	29.2908	0.00198707	8.38694e-09
-16596.1	119.511	29.2498	0.00257563	1.21684e-08
-16788.9	105.979	29.209	0.00332844	1.75969e-08
-16981.6	90.0803	29.1684	0.00428832	2.53639e-08
-17174.4	77.0944	29.128	0.00550835	3.64394e-08
-17367.1	71.078	29.088	0.00705414	5.21798e-08
-17559.9	73.6939	29.0484	0.00900649	7.44747e-08
-17752.6	83.7746	29.0092	0.0114645	1.05947e-07
-17945.3	97.8269	28.9707	0.0145493	1.50227e-07
-18138.1	111.336	28.933	0.0184085	2.12315e-07
-18330.8	120.393	28.8963	0.0232211	2.99082e-07
-18523.6	123.012	28.8607	0.0292036	4.19928e-07
-18716.3	119.613	28.8265	0.0366165	5.87672e-07
-18909.1	112.486	28.7941	0.0457727	8.1973e-07
-19101.8	104.509	28.7638	0.0570458	1.13968e-06
-19294.5	97.7316	28.736	0.070881	1.57932e-06
-19487.3	92.4809	28.7114	0.087806	2.18138e-06
-19680	87.5296	28.6904	0.108444	3.0031e-06
-19872.8	80.9624	28.6739	0.13353	4.12081e-06
-20065.5	71.4847	28.6628	0.163922	5.63602e-06
-20258.2	59.8523	28.6579	0.200625	7.68311e-06
-20451	48.9203	28.6605	0.244806	1.04395e-05
-20643.7	42.67	28.6719	0.297815	1.41382e-05
-20836.5	44.4316	28.6937	0.361209	1.90847e-05
-21029.2	55.0828	28.7277	0.436777	2.56775e-05
-21222	72.0951	28.776	0.526562	3.44347e-05
-21414.7	89.9796	28.8407	0.632888	4.60272e-05
-21607.4	102.088	28.9247	0.758391	6.13209e-05
-21800.2	103.101	29.0307	0.906041	8.14288e-05
-21992.9	91.1874	29.1623	1.07917	0.000107776
-22185.7	68.8979	29.3231	1.28151	0.000142182
-22378.4	42.3637	29.5173	1.51719	0.000186957
-22571.2	19.0849	29.7494	1.79081	0.000245026
-22763.9	5.1975	30.0244	2.10739	0.000320081
-22956.6	3.33467	30.348	2.47246	0.000416758
-23149.4	11.9417	30.7261	2.89203	0.000540857
-23342.1	26.2709	31.1653	3.37259	0.000699612
-23534.9	40.5588	31.6725	3.92114	0.000902002
-23727.6	50.3972	32.2552	4.54518	0.00115913
-23920.4	54.2698	32.9214	5.25263	0.00148468
-24113.1	53.6513	33.6795	6.05189	0.00189545
-24305.8	51.7486	34.5383	6.95175	0.00241192
-24498.6	51.5916	35.5069	7.96132	0.00305909
-24691.3	54.4529	36.5948	9.09002	0.00386719
-24884.1	59.3694	37.8117	10.3474	0.00487276
-25076.8	63.9666	39.1672	11.7433	0.00611969
-25269.6	66.1099	40.6711	13.2872	0.00766056
-25462.3	65.4758	42.333	14.9888	0.00955798
-25655	64.1538	44.1622	16.8573	0.0118863
-25847.8	65.8627	46.1677	18.9015	0.0147335
-26040.5	74.0722	48.3579	21.1298	0.0182028
-26233.3	89.9167	50.7402	23.5495	0.0224154
-26426	110.977	53.3213	26.1671	0.0275126
-26618.8	131.666	56.1068	28.988	0.0336582
-26811.5	145.227	59.1008	32.0162	0.0410418
-27004.2	146.577	62.3059	35.254	0.0498812
-27197	134.734	65.7231	38.7023	0.0604259
-27389.7	113.68	69.3515	42.3597	0.0729601
-27582.5	91.1227	73.188	46.2229	0.0878058
-27775.2	75.5394	77.2274	50.2864	0.105326
-27968	72.7029	81.4621	54.5421	0.125929
-28160.7	83.1621	85.8821	58.9795	0.150069
-28353.4	101.824	90.4748	63.5856	0.17825
-28546.2	119.902	95.2252	68.3447	0.211031
-28738.9	128.492	100.115	73.2385	0.249022
-28931.7	122.295	105.125	78.2461	0.29289
-29124.4	101.927	110.232	83.3439	0.343358
-29317.2	73.825	115.41	88.5061	0.401203
-29509.9	47.765	120.633	93.7047	0.46726
-29702.6	33.0233	125.872	98.9094	0.54241
-29895.4	34.7805	131.094	104.088	0.627585
-30088.1	52.2442	136.269	109.208	0.723758
-30280.9	79.225	141.361	114.234	0.831935
-30473.6	106.847	146.338	119.131	0.95315
-30666.3	127.191	151.164	123.864	1.08845
-30859.1	136.31	155.805	128.396	1.23889
-31051.8	135.398	160.226	132.692	1.4055
-31244.6	129.726	164.395	136.719	1.58929
-31437.3	125.942	168.279	140.443	1.79124
-31630.1	129.006	171.849	143.833	2.01224
-31822.8	140.125	175.077	146.861	2.2531
-32015.5	156.524	177.936	149.5	2.51453
-32208.3	173.051	180.405	151.728	2.7971
-32401	184.772	182.464	153.525	3.10125
-32593.8	189.326	184.098	154.875	3.4272
-32786.5	187.958	185.295	155.765	3.77501
-32979.3	184.834	186.046	156.188	4.14451
-33172	184.996	186.347	156.14	4.53527
-33364.7	191.962	186.198	155.622	4.94663
-33557.5	206.054	185.603	154.637	5.37762
-33750.2	224.194	184.569	153.195	5.82703
-33943	241.176	183.107	151.309	6.29332
-34135.7	251.781	181.233	148.995	6.77467
-34328.5	252.745	178.965	146.274	7.26895
-34521.2	243.747	176.324	143.17	7.77376
-34713.9	227.087	173.335	139.709	8.2864
-34906.7	206.356	170.022	135.921	8.80393
-35099.4	184.868	166.416	131.837	9.32315
-35292.2	164.638	162.544	127.489	9.84067
-35484.9	146.352	158.439	122.914	10.3529
-35677.7	130.203	154.132	118.145	10.8561
-35870.4	116.993	149.655	113.219	11.3465
-36063.1	108.723	145.039	108.171	11.8203
-36255.9	108.206	140.316	103.036	12.2735
-36448.6	117.728	135.516	97.8492	12.7023
-36641.4	137.379	130.669	92.6432	13.1031
-36834.1	163.933	125.803	87.4497	13.4723
-37026.9	191.024	120.945	82.2984	13.8065
-37219.6	210.78	116.118	77.2169	14.1026
-37412.3	216.446	111.345	72.2308	14.358
-37605.1	204.947	106.648	67.3628	14.5701
-37797.8	178.327	102.044	62.6335	14.7369
-37990.6	143.335	97.5494	58.0606	14.8569
-38183.3	109.224	93.1784	53.6592	14.9287
-38376.1	84.5464	88.9426	49.4419	14.9518
-38568.8	74.1755	84.852	45.4188	14.9259
-38761.5	77.7042	80.9141	41.5971	14.8513
-38954.3	89.8304	77.1349	37.9822	14.7286
-39147	102.525	73.5184	34.5768	14.5591
-39339.8	108.085	70.0672	31.3818	14.3445
-39532.5	101.863	66.7822	28.3961	14.0867
-39725.3	83.6568	63.6631	25.617	13.7883
-39918	57.3519	60.7084	23.0402	13.452
-40110.7	29.1194	57.9157	20.6601	13.0809
-40303.5	5.03697	55.2815	18.47	12.6784
-40496.2	-10.881	52.8019	16.4623	12.2481
-40689	-17.5381	50.4721	14.6286	11.7936
-40881.7	-16.3555	48.2871	12.9599	11.3188
-41074.4	-10.0294	46.2413	11.4469	10.8276
-41267.2	-1.16727	44.329	10.0801	10.3237
-41459.9	8.53825	42.5444	8.84975	9.8111
-41652.7	18.3052	40.8815	7.74611	9.29339
-41845.4	27.6011	39.3343	6.75967	8.77418
-42038.2	35.3372	37.8968	5.88105	8.25685
-42230.9	39.4764	36.5631	5.10121	7.74458
-42423.6	37.3669	35.3274	4.41143	7.2403
-42616.4	26.703	34.1842	3.80342	6.7467
-42809.1	6.66537	33.128	3.26932	6.26616
-43001.9	-21.3364	32.1535	2.80175	5.80079
-43194.6	-53.7254	31.2556	2.3938	5.3524
-43387.4	-85.663	30.4294	2.03909	4.9225
-43580.1	-112.444	29.6702	1.7317	4.5123
-43772.8	-130.803	28.9736	1.46622	4.12274
-43965.6	-139.613	28.3353	1.23769	3.75448
-44158.3	-139.733	27.7511	1.04163	3.40792
-44351.1	-133.174	27.2171	0.873981	3.08322
-44543.8	-122.035	26.7298	0.731106	2.78032
-44736.6	-107.72	26.2855	0.609743	2.49897
-44929.3	-90.784	25.8809	0.506992	2.23874
-45122	-71.3742	25.5129	0.420285	1.99904
-45314.8	-49.9558	25.1785	0.347357	1.77915
-45507.5	-27.853	24.8749	0.286217	1.57827
-45700.3	-7.25502	24.5995	0.235128	1.39549
-45893	9.36622	24.3497	0.192575	1.22983
-46085.8	20.1577	24.1233	0.157248	1.08029
-46278.5	24.6488	23.918	0.128014	0.945829
-46471.2	23.9687	23.7319	0.103901	0.82539
-46664	20.3721	23.563	0.0840755	0.717929
-46856.7	16.2741	23.4096	0.0678278	0.622414
-47049.5	13.2488	23.2702	0.0545549	0.537839
-47242.2	11.4746	23.1432	0.043747	0.463235
-47435	9.89525	23.0273	0.0349745	0.397673
-47627.7	7.0095	22.9212	0.0278768	0.340272
-47820.4	1.88127	22.8239	0.0221525	0.290203
-48013.2	-5.15905	22.7342	0.0175506	0.246691
-48205.9	-12.5068	22.6512	0.0138627	0.209016
-48398.7	-18.0039	22.5742	0.0109167	0.176516
-48591.4	-20.0451	22.5023	0.00857089	0.14858
-48784.2	-18.5001	22.435	0.00670884	0.124657
-48976.9	-14.9414	22.3715	0.00523549	0.104242
-49169.6	-11.9915	22.3114	0.00407338	0.0868859
-49362.4	-12.0405	22.2542	0.00315967	0.0721822
-49555.1	-15.9367	22.1995	0.00244352	0.0597704
-49747.9	-22.3213	22.1469	0.001884	0.0493308
-49940.6	-28.0195	22.0962	0.00144821	0.0405813
-50133.4	-29.4197	22.0469	0.00110987	0.0332743
-50326.1	-24.2731	21.999	0.000848007	0.0271936
-50518.8	-13.0887	21.9522	0.000645975	0.0221514
-50711.6	0.60215	21.9063	0.000490592	0.017985
-50904.3	11.3743	21.8612	0.000371462	0.0145545
-51097.1	14.08	21.8167	0.000280411	0.0117397
-51289.8	6.20017	21.7727	0.00021104	0.00943831
-51482.5	-10.6469	21.7292	0.000158352	0.00756321
-51675.3	-30.7834	21.6861	0.00011846	0.0060408
-51868	-46.2544	21.6433	8.83497e-05	0.00480903
-52060.8	-49.721	21.6007	6.56944e-05	0.0038159
-52253.5	-37.3659	21.5583	4.87012e-05	0.00301794
-52446.3	-10.6481	21.516	3.59948e-05	0.00237904
-52639	23.8497	21.4739	2.65233e-05	0.00186925
-52831.7	53.9426	21.4319	1.94852e-05	0.00146389
-53024.5	72.5161	21.39	1.42715e-05	0.00114268
-53217.2	73.9695	21.3482	1.04213e-05	0.000889034
-53410	57.9425	21.3064	7.58689e-06	0.000689424
-53602.7	29.6556	21.2647	5.50673e-06	0.000532881
-53795.5	-2.0066	21.223	3.98485e-06	0.000410535
-53988.2	-27.6337	21.1813	2.87487e-06	0.000315243
-54180.9	-40.4739	21.1397	2.06782e-06	0.000241277
-54373.7	-38.5166	21.098	1.48285e-06	0.000184061
-54566.4	-24.7856	21.0564	1.06015e-06	0.000139953
-54759.2	-5.85757	21.0148	7.55663e-07	0.000106067
-54951.9	10.7355	20.9732	5.37003e-07	8.01224e-05
-55144.7	19.193	20.9316	3.80464e-07	6.03258e-05
-55337.4	17.2447	20.89	2.68743e-07	4.52717e-05
-55530.1	6.48995	20.8484	1.89257e-07	3.38631e-05
-55722.9	-8.70447	20.8068	1.32878e-07	2.52466e-05
-55915.6	-23.2009	20.7652	9.30128e-08	1.87609e-05
-56108.4	-33.1493	20.7236	6.49114e-08	1.38957e-05
-56301.1	-37.3296	20.6821	4.51635e-08	1.02585e-05
-56493.9	-37.333	20.6405	3.13287e-08	7.54849e-06
-56686.6	-36.6104	20.5989	2.16664e-08	5.53622e-06
-56879.3	-38.8353	20.5573	1.49389e-08	4.04709e-06
-57072.1	-46.2503	20.5157	1.02693e-08	2.94881e-06
-57264.8	-58.631	20.4742	7.03806e-09	2.14155e-06
-57457.6	-73.2374	20.4326	4.80905e-09	1.55018e-06
-57650.3	-85.7494	20.391	3.27618e-09	1.11845e-06
-57843.1	-91.8292	20.3494	2.22534e-09	8.04307e-07
-58035.8	-88.7471	20.3078	1.50726e-09	5.76507e-07
-58228.5	-76.4906	20.2663	1.01824e-09	4.11872e-07
-58421.3	-57.9681	20.2247	6.86476e-10	2.93289e-07
-58614	-38.2182	20.1831	4.62481e-10	2.08164e-07
-58806.8	-22.8725	20.1415	3.12328e-10	1.47262e-07
-58999.5	-16.3633	20.0999	2.12954e-10	1.03837e-07
-59192.3	-20.4634	20.0584	1.48922e-10	7.29773e-08
-59385	-33.642	20.0168	1.10227e-10	5.1121e-08
-59577.7	-51.4655	19.9752	9.08728e-11	3.56933e-08
-59770.5	-67.9324	19.9336	8.80275e-11	2.48399e-08
-59963.2	-77.3194	19.8921	1.01666e-10	1.72301e-08
-60156	-75.9396	19.8505	1.34653e-10	1.19125e-08
-60348.7	-63.2369	19.8089	1.93293e-10	8.20905e-09
-60541.5	-41.8607	19.7673	2.88454e-10	5.63843e-09
-60734.2	-16.7209	19.7257	4.3744e-10	3.86011e-09
-60926.9	6.62515	19.6842	6.66914e-10	2.634e-09
-61119.7	23.672	19.6426	1.01733e-09	1.79147e-09
-61312.4	32.1568	19.601	1.54952e-09	1.21444e-09
-61505.2	32.3652	19.5594	2.35451e-09	8.20578e-10
-61697.9	26.5269	19.5178	3.56787e-09	5.52636e-10
-61890.7	17.6363	19.4763	5.39084e-09	3.70966e-10
-62083.4	8.23647	19.4347	8.12106e-09	2.48201e-10
-62276.1	-0.320375	19.3931	1.21974e-08	1.6552e-10
-62468.9	-7.87517	19.3515	1.82647e-08	1.10021e-10
-62661.6	-14.8269	19.31	2.72677e-08	7.28913e-11
-62854.4	-21.2673	19.2684	4.05856e-08	4.81348e-11
-63047.1	-26.3995	19.2268	6.02262e-08	3.16838e-11
-63239.8	-28.6072	19.1852	8.9102e-08	2.07891e-11
-63432.6	-26.1985	19.1436	1.31425e-07	1.35996e-11
-63625.3	-18.4783	19.1021	1.93266e-07	8.87329e-12
-63818.1	-6.57783	19.0605	2.83349e-07	5.78057e-12
-64010.8	6.47913	19.0189	4.14169e-07	3.76995e-12
-64203.6	16.6636	18.9773	6.03561e-07	2.4777e-12
-64396.3	20.5167	18.9357	8.76905e-07	1.66722e-12
-64589	16.755	18.8942	1.2702e-06	1.18916e-12
-64781.8	7.13907	18.8526	1.83435e-06	9.56089e-13
-64974.5	-3.91787	18.811	2.64106e-06	9.27992e-13
-65167.3	-11.0006	18.7694	3.79108e-06	1.10623e-12
-65360	-10.0135	18.7279	5.42546e-06	1.5354e-12
-65552.8	-0.206875	18.6863	7.74102e-06	2.31361e-12
-65745.5	15.0363	18.6447	1.10116e-05	3.61355e-12
-65938.2	29.1464	18.6031	1.56166e-05	5.71826e-12
-66131	34.821	18.5616	2.20807e-05	9.07884e-12
-66323.7	27.0752	18.52	3.11264e-05	1.44047e-11
-66516.5	5.63735	18.4784	4.37454e-05	2.28034e-11
-66709.2	-24.3903	18.4369	6.12949e-05	3.59952e-11
-66902	-54.033	18.3953	8.56257e-05	5.66414e-11
-67094.7	-73.6476	18.3538	0.000119254	8.88435e-11
-67287.4	-76.6334	18.3122	0.000165588	1.389e-10
-67480.2	-62.1661	18.2707	0.000229232	2.16452e-10
-67672.9	-35.7973	18.2292	0.000316379	3.36199e-10
-67865.7	-7.58452	18.1878	0.000435341	5.20484e-10
-68058.4	11.5981	18.1463	0.000597228	8.03145e-10
-68251.2	14.162	18.105	0.000816843	1.23525e-09
-68443.9	-1.2839	18.0637	0.00111385	1.89363e-09
-68636.6	-29.3652	18.0225	0.00151426	2.8934e-09
-68829.4	-59.9466	17.9815	0.00205241	4.40654e-09
-69022.1	-81.924	17.9406	0.00277342	6.68903e-09
-69214.9	-87.3141	17.9	0.00373642	1.01205e-08
-69407.6	-74.0608	17.8597	0.00501862	1.52623e-08
-69600.4	-46.5112	17.8198	0.0067205	2.2941e-08
-69793.1	-13.4686	17.7805	0.00897236	3.437e-08
-69985.8	15.3223	17.7419	0.0119426	5.13242e-08
-70178.6	32.8153	17.7042	0.0158483	7.63908e-08
-70371.3	37.0061	17.6678	0.0209678	1.13328e-07
-70564.1	31.1508	17.6329	0.0276573	1.67574e-07
-70756.8	21.9194	17.6	0.0363712	2.46974e-07
-70949.6	16.3663	17.5698	0.0476862	3.62804e-07
-71142.3	19.0103	17.5428	0.0623327	5.31213e-07
-71335	30.181	17.5201	0.0812321	7.75249e-07
-71527.8	46.1881	17.5029	0.105543	1.12769e-06
-71720.5	61.0962	17.4925	0.136715	1.63498e-06
-71913.3	69.256	17.4907	0.17656	2.36272e-06
-72106	67.5173	17.4999	0.227331	3.40319e-06
-72298.8	56.2824	17.5228	0.291818	4.88581e-06
-72491.5	39.1078	17.5629	0.373469	6.99137e-06
-72684.2	21.1799	17.6244	0.476524	9.97157e-06
-72877	9.5278	17.7125	0.606182	1.41756e-05
-73069.7	5.374	17.8335	0.768794	2.0086e-05
-73262.5	9.11158	17.9952	0.972087	2.83675e-05
-73455.2	19.3141	18.207	1.22543	3.99324e-05
-73647.9	33.4306	18.4802	1.54014	5.6028e-05
-73840.7	48.8335	18.8283	1.92984	7.83538e-05
-74033.4	63.513	19.2678	2.41084	0.000109217
-74226.2	76.2519	19.818	3.00266	0.000151739
-74418.9	86.4157	20.5023	3.72848	0.000210126
-74611.7	93.6614	21.3481	4.61578	0.000290026
-74804.4	97.8341	22.3879	5.69701	0.000398997
-74997.1	99.1274	23.6598	7.01031	0.000547115
-75189.9	98.3536	25.2084	8.60034	0.000747761
-75382.6	97.0487	27.086	10.5192	0.00101864
-75575.4	97.1941	29.3529	12.8274	0.00138311
-75768.1	100.555	32.0793	15.5949	0.00187184
-75960.9	107.889	35.3458	18.9022	0.00252497
-76153.6	118.418	39.2448	22.842	0.00339483
-76346.3	129.915	43.882	27.5196	0.00454942
-76539.1	139.488	49.3775	33.0551	0.00607673
-76731.8	144.812	55.8672	39.5844	0.00809019
-76924.6	145.3	63.5043	47.2605	0.0107355
-77117.3	142.661	72.4606	56.2548	0.0141992
-77310.1	140.52	82.9278	66.7591	0.0187189
-77502.8	143.164	95.1188	78.9858	0.0245964
-77695.5	153.885	109.269	93.1699	0.0322135
-77888.3	173.617	125.637	109.57	0.0420514
-78081	200.459	144.506	128.468	0.0547141
-78273.8	230.375	166.184	150.171	0.0709567
-78466.5	258.817	191.004	175.012	0.0917197
-78659.3	282.674	219.323	203.346	0.11817
-78852	301.74	251.524	235.555	0.15175
-79044.7	319.124	288.013	272.043	0.194234
-79237.5	340.399	329.218	313.236	0.247797
-79430.2	371.82	375.586	359.578	0.315097
-79623	418.29	427.582	411.532	0.399363
-79815.7	481.837	485.686	469.572	0.504506
-80008.5	561.129	550.385	534.182	0.635244
-80201.2	652.146	622.173	605.849	0.797242
-80393.9	749.68	701.542	685.06	0.997277
-80586.7	849.064	788.976	772.29	1.24342
-80779.4	947.54	884.948	868.002	1.54523
-80972.2	1044.86	989.908	972.634	1.91402
-81164.9	1143.07	1104.27	1086.59	2.36306
-81357.7	1245.82	1228.42	1210.24	2.90789
-81550.4	1357.34	1362.7	1343.89	3.56662
-81743.1	1481.72	1507.36	1487.81	4.36025
-81935.9	1622.31	1662.63	1642.17	5.31302
-82128.6	1781.45	1828.64	1807.08	6.45279
-82321.4	1960.17	2005.43	1982.55	7.8114
-82514.1	2157.94	2192.95	2168.5	9.42511
-82706.9	2372.47	2391.05	2364.73	11.3349
-82899.6	2599.78	2599.49	2570.95	13.5871
-83092.3	2834.63	2817.86	2786.73	16.2335
-83285.1	3071.63	3045.7	3011.5	19.3317
-83477.8	3306.56	3282.36	3244.59	22.9459
-83670.6	3537.71	3527.11	3485.18	27.1467
-83863.3	3766.56	3779.07	3732.32	32.0113
-84056	3997.51	4037.26	3984.94	37.624
-84248.8	4236.57	4300.55	4241.82	44.076
-84441.5	4489.21	4567.71	4501.64	51.4654
-84634.3	4758.32	4837.43	4762.97	59.8969
-84827	5042.75	5108.28	5024.27	69.4814
-85019.8	5337.16	5378.75	5283.93	80.3357
-85212.5	5633.23	5647.27	5540.24	92.5815
-85405.2	5921.82	5912.22	5791.47	106.345
-85598	6195.52	6171.96	6035.84	121.754
-85790.7	6450.39	6424.81	6271.55	138.939
-85983.5	6686.7	6669.12	6496.81	158.031
-86176.2	6908.07	6903.26	6709.87	179.158
-86369	7119.6	7125.65	6909.01	202.444
-86561.7	7325.57	7334.78	7092.62	228.008
-86754.4	7527.56	7529.21	7259.14	255.959
-86947.2	7723.46	7707.64	7407.17	286.395
-87139.9	7907.87	7868.86	7535.42	319.402
-87332.7	8073.5	8011.82	7642.78	355.046
-87525.4	8213.15	8135.61	7728.29	393.376
-87718.2	8321.61	8239.51	7791.19	434.416
-87910.9	8396.91	8322.95	7830.92	478.167
-88103.6	8440.58	8385.53	7847.11	524.601
-88296.4	8457.03	8427.06	7839.62	573.66
-88489.1	8452.06	8447.52	7808.52	625.252
-88681.9	8431.26	8447.04	7754.09	679.253
-88874.6	8398.49	8425.98	7676.82	735.501
-89067.4	8354.97	8384.82	7577.4	793.8
-89260.1	8299.21	8324.2	7456.71	853.914
-89452.8	8227.8	8244.92	7315.82	915.573
-89645.6	8136.73	8147.9	7155.94	978.47
-89838.3	8023.04	8034.16	6978.45	1042.26
-90031.1	7886.14	7904.82	6784.83	1106.58
-90223.8	7728.54	7761.08	6576.7	1171.02
-90416.6	7555.46	7604.2	6355.73	1235.15
-90609.3	7373.63	7435.47	6123.65	1298.53
-90802	7189.42	7256.2	5882.26	1360.7
-90994.8	7006.99	7067.71	5633.35	1421.17
-91187.5	6827.18	6871.31	5378.7	1479.46
-91380.3	6647.4	6668.29	5120.07	1535.11
-91573	6462.9	6459.88	4859.18	1587.63
-91765.8	6268.77	6247.28	4597.68	1636.57
-91958.5	6062.1	6031.62	4337.13	1681.5
-92151.2	5843.41	5813.96	4079.01	1722
-92344	5616.75	5595.29	3824.68	1757.71
-92536.7	5388.43	5376.53	3575.39	1788.28
-92729.5	5164.77	5158.52	3332.27	1813.42
-92922.2	4949.86	4942	3096.32	1832.9
-93115	4744.19	4727.66	2868.4	1846.52
-93307.7	4544.74	4516.09	2649.25	1854.15
-93500.4	4346.64	4307.82	2439.45	1855.71
-93693.2	4145.52	4103.32	2239.5	1851.2
-93885.9	3939.82	3902.96	2049.74	1840.65
-94078.7	3731.77	3707.09	1870.4	1824.16
-94271.4	3526.73	3516	1701.6	1801.91
-94464.1	3331.04	3329.91	1543.37	1774.09
-94656.9	3149.26	3149.03	1395.63	1740.99
-94849.6	2982.1	2973.51	1258.23	1702.91
-95042.4	2825.78	2803.47	1130.93	1660.21
-95235.1	2673.52	2639.01	1013.45	1613.28
-95427.9	2518.32	2480.22	905.433	1562.54
-95620.6	2356.07	2327.14	806.489	1508.45
-95813.3	2187.57	2179.81	716.191	1451.46
-96006.1	2018.63	2038.25	634.086	1392.04
-96198.8	1857.92	1902.47	559.7	1330.69
-96391.6	1713.59	1772.46	492.55	1267.88
-96584.3	1589.85	1648.22	432.15	1204.08
-96777.1	1485.13	1529.7	378.013	1139.74
-96969.8	1392.49	1416.88	329.661	1075.31
-97162.5	1302.35	1309.69	286.626	1011.2
-97355.3	1206.33	1208.08	248.458	947.795
-97548	1100.76	1111.97	214.723	885.459
-97740.8	988.341	1021.27	185.009	824.514
-97933.5	877.195	935.877	158.926	765.25
-98126.3	777.756	855.688	136.109	707.92
-98319	698.617	780.574	116.216	652.74
-98511.7	643.065	710.398	98.9308	599.891
-98704.5	607.684	645.013	83.9629	549.515
-98897.2	583.583	584.26	71.0446	501.722
-99090	559.746	527.969	59.9326	456.585
-99282.7	527.147	475.965	50.4062	414.149
-99475.5	482.015	428.061	42.2662	374.426
-99668.2	426.967	384.066	35.3338	337.405
-99860.9	369.653	343.784	29.4493	303.049
-100054	319.516	307.015	24.4709	271.3
-100246	284.004	273.557	20.2727	242.082
-100439	265.737	243.208	16.7441	215.303
-100632	261.639	215.767	13.788	190.86
-100825	264.261	191.034	11.3195	168.637
-101017	264.625	168.815	9.26498	148.514
-101210	255.399	148.919	7.56046	130.364
-101403	233.2	131.161	6.15093	114.058
-101596	199.259	115.364	4.98909	99.464
-101788	158.441	101.358	4.0345	86.4536
-101981	117.204	88.9796	3.25272	74.899
-102174	81.4398	78.077	2.61453	64.6762
-102367	54.9877	68.5058	2.09521	55.6658
-102559	39.2122	60.131	1.67398	47.7538
-102752	33.4815	52.8272	1.3334	40.8322
-102945	36.0395	46.4785	1.05891	34.7996
-103138	44.7065	40.9779	0.83839	29.5611
-103330	57.0965	36.2276	0.661792	25.0289
-103523	70.4245	32.1383	0.520818	21.1222
-103716	81.2866	28.6293	0.408637	17.767
-103909	85.8529	25.6275	0.319653	14.8957
-104101	80.6847	23.0675	0.249292	12.4476
-104294	63.9927	20.8906	0.193832	10.3678
-104487	36.8754	19.0448	0.150256	8.60721
-104680	6.61525	17.4841	0.116125	7.12219
-104872	-23.0939	16.1678	0.0894761	5.87408
-105065	-44.8287	15.0602	0.0687349	4.82884
-105258	-52.9351	14.1303	0.0526425	3.95659
-105450	-45.6025	13.351	0.0401961	3.23128
-105643	-25.7341	12.6988	0.0305999	2.63029
-105836	-0.163925	12.1536	0.0232243	2.13407
-106029	22.5913	11.6981	0.0175734	1.72579
-106221	35.2592	11.3175	0.0132573	1.39106
-106414	34.3268	10.9991	0.00997116	1.11757
-106607	21.1817	10.7324	0.00747692	0.894919
-106800	1.43965	10.5083	0.0055897	0.714277
-106992	-17.2793	10.3193	0.00416622	0.568231
-107185	-28.2602	10.159	0.00309589	0.450567
-107378	-28.1688	10.0221	0.00229359	0.356097
-107571	-18.1606	9.90434	0.00169408	0.280514
-107763	-3.24777	9.80205	0.0012475	0.220249
-107956	9.771	9.71226	0.000915878	0.172366
-108149	14.9684	9.63252	0.000670381	0.134451
-108342	9.4995	9.56084	0.000489209	0.104532
-108534	-5.44465	9.4956	0.000355922	0.0810054
-108727	-25.2239	9.43549	0.000258169	0.0625681
-108920	-43.5556	9.37944	0.000186699	0.048169
-109113	-54.7836	9.3266	0.000134607	0.0369622
-109305	-55.7384	9.27629	9.67567e-05	0.0282698
-109498	-46.5489	9.22796	6.93399e-05	0.0215508
-109691	-30.2241	9.18119	4.95421e-05	0.016375
-109884	-11.299	9.13562	3.52901e-05	0.0124015
-110076	5.84552	9.09099	2.50623e-05	0.00936142
-110269	18.3358	9.04709	1.7745e-05	0.00704345
-110462	25.3924	9.00375	1.25262e-05	0.00528207
-110655	28.0599	8.96083	8.81562e-06	0.0039482
-110847	28.3286	8.91824	6.18548e-06	0.00294151
-111040	28.0796	8.8759	4.32696e-06	0.00218432
-111233	28.2811	8.83376	3.01773e-06	0.00161673
-111425	28.6927	8.79175	2.09829e-06	0.00119271
-111618	28.1031	8.74986	1.45459e-06	0.000877016
-111811	24.929	8.70805	1.00532e-06	0.00064277
-112004	17.9154	8.66629	6.92712e-07	0.000469548
-112196	6.6991	8.62459	4.75874e-07	0.000341885
-112389	-7.9088	8.58291	3.25926e-07	0.000248116
-112582	-23.9628	8.54127	2.22554e-07	0.000179476
-112775	-38.7101	8.49964	1.51509e-07	0.000129399
-112967	-49.1376	8.45802	1.02833e-07	9.29896e-05
-113160	-52.6571	8.41642	6.95845e-08	6.66058e-05
-113353	-47.8147	8.37482	4.69442e-08	4.75516e-05
-113546	-34.8737	8.33323	3.15747e-08	3.38372e-05
-113738	-16.073	8.29164	2.11732e-08	2.39993e-05
-113931	4.6158	8.25005	1.41554e-08	1.6966e-05
-114124	22.3165	8.20847	9.43514e-09	1.19546e-05
-114317	32.5488	8.16689	6.27002e-09	8.39587e-06
-114509	32.6781	8.12531	4.15423e-09	5.87723e-06
-114702	23.0287	8.08372	2.7443e-09	4.10067e-06
-114895	7.18365	8.04215	1.80774e-09	2.85176e-06
-115088	-8.80455	8.00057	1.18768e-09	1.97673e-06
-115280	-18.1995	7.95899	7.78696e-10	1.3657e-06
-115473	-15.8681	7.91741	5.10151e-10	9.40461e-07
-115666	-0.2977	7.87583	3.34971e-10	6.45507e-07
-115859	25.438	7.83425	2.2198e-10	4.41608e-07
-116051	54.2503	7.79267	1.50757e-10	3.01126e-07
-116244	77.0989	7.75109	1.08209e-10	2.04661e-07
-116437	85.9379	7.70951	8.63323e-11	1.38643e-07
-116630	76.5436	7.66793	8.08119e-11	9.36133e-08
-116822	50.1919	7.62636	9.02334e-11	6.30016e-08
-117015	13.5124	7.58478	1.15769e-10	4.22611e-08
-117208	-25.5646	7.5432	1.61279e-10	2.82557e-08
-117401	-55.5723	7.50162	2.33839e-10	1.88299e-08
-117593	-68.7862	7.46004	3.44731e-10	1.25073e-08
-117786	-63.5325	7.41846	5.1105e-10	8.28049e-09
-117979	-43.7934	7.37688	7.5811e-10	5.46416e-09
-118171	-17.573	7.33531	1.12297e-09	3.59391e-09
-118364	6.06155	7.29373	1.65951e-09	2.35606e-09
-118557	20.1476	7.25215	2.44568e-09	1.5395e-09
-118750	22.0372	7.21057	3.59385e-09	1.00265e-09
-118942	13.8854	7.16899	5.26539e-09	6.50873e-10
-119135	1.33412	7.12741	7.69127e-09	4.21131e-10
-119328	-8.99825	7.08583	1.1201e-08	2.71591e-10
-119521	-12.1834	7.04426	1.62633e-08	1.74578e-10
-119713	-6.7667	7.00268	2.35421e-08	1.11851e-10
-119906	4.96187	6.9611	3.39761e-08	7.1429e-11
-120099	18.2025	6.91952	4.88865e-08	4.54672e-11
-120292	27.7772	6.87794	7.01283e-08	2.88494e-11
-120484	30.2363	6.83636	1.00297e-07	1.82494e-11
-120677	25.0924	6.79478	1.4301e-07	1.15129e-11
-120870	14.7621	6.7532	2.03299e-07	7.24993e-12
-121063	3.35868	6.71163	2.88134e-07	4.56745e-12
-121255	-5.0548	6.67005	4.07136e-07	2.89502e-12
-121448	-7.97152	6.62847	5.73554e-07	1.87151e-12
-121641	-5.10765	6.58689	8.05558e-07	1.2722e-12
-121834	1.9426	6.54531	1.128e-06	9.62656e-13
-122026	10.767	6.50373	1.57473e-06	8.70456e-13
-122219	19.3162	6.46216	2.19177e-06	9.69383e-13
-122412	26.6186	6.42058	3.04138e-06	1.27278e-12
-122605	32.7279	6.379	4.2076e-06	1.83457e-12
-122797	38.0251	6.33742	5.80347e-06	2.75787e-12
-122990	42.3421	6.29585	7.98047e-06	4.21227e-12
-123183	44.4709	6.25427	1.0941e-05	6.46248e-12
-123376	42.4254	6.2127	1.49546e-05	9.91272e-12
-123568	34.4206	6.17112	2.03789e-05	1.51735e-11
-123761	20.1205	6.12955	2.7687e-05	2.31613e-11
-123954	1.50335	6.08798	3.75023e-05	3.52448e-11
-124147	-17.2081	6.04642	5.06441e-05	5.34608e-11
-124339	-30.7042	6.00486	6.81849e-05	8.08282e-11
-124532	-34.4757	5.9633	9.15242e-05	1.21807e-10
-124725	-26.6811	5.92175	0.000122482	1.8296e-10
-124917	-9.16385	5.88022	0.000163417	2.73917e-10
-125110	12.9192	5.83869	0.000217375	4.08749e-10
-125303	32.8317	5.79718	0.000288277	6.07953e-10
-125496	44.7382	5.7557	0.000381153	9.0128e-10
-125688	45.9517	5.71424	0.000502432	1.33176e-09
-125881	38.0095	5.67282	0.000660303	1.96139e-09
-126074	26.0848	5.63145	0.000865162	2.87926e-09
-126267	16.9149	5.59013	0.00113016	4.21282e-09
-126459	16.0504	5.5489	0.00147188	6.14384e-09
-126652	25.5312	5.50776	0.00191113	8.93065e-09
-126845	42.941	5.46674	0.00247399	1.2939e-08
-127038	62.2373	5.42588	0.00319296	1.86851e-08
-127230	76.0274	5.38522	0.00410845	2.68946e-08
-127423	78.3725	5.3448	0.00527049	3.85843e-08
-127616	66.9913	5.30469	0.00674081	5.51736e-08
-127809	43.9994	5.26497	0.00859531	7.86372e-08
-128001	14.9396	5.22572	0.010927	1.11712e-07
-128194	-13.436	5.18707	0.0138492	1.58179e-07
-128387	-35.6733	5.14914	0.0175001	2.23239e-07
-128580	-49.3747	5.11211	0.0220466	3.14029e-07
-128772	-55.5396	5.07617	0.0276907	4.40296e-07
-128965	-57.4481	5.04158	0.0346747	6.15311e-07
-129158	-58.6826	5.00861	0.0432893	8.57078e-07
-129351	-61.2236	4.97763	0.0538811	1.18993e-06
-129543	-64.4779	4.94903	0.0668622	1.64664e-06
-129736	-65.6411	4.92331	0.0827206	2.27118e-06
-129929	-61.1782	4.90104	0.102032	3.12233e-06
-130122	-48.7034	4.88291	0.125471	4.27841e-06
-130314	-28.3804	4.86969	0.15383	5.84335e-06
-130507	-3.20225	4.86231	0.18803	7.95458e-06
-130700	21.9648	4.86185	0.229141	1.07931e-05
-130893	42.1306	4.86953	0.278397	1.45967e-05
-131085	53.9364	4.88678	0.337222	1.96759e-05
-131278	56.6582	4.91523	0.407245	2.64358e-05
-131471	52.0689	4.95674	0.490324	3.54018e-05
-131663	43.314	5.01342	0.588572	4.72535e-05
-131856	33.3967	5.08766	0.704375	6.28663e-05
-132049	24.0196	5.18215	0.84042	8.33639e-05
-132242	15.3149	5.29989	0.999718	0.000110183
-132434	6.52455	5.44426	1.18562	0.000145152
-132627	-2.7998	5.61896	1.40186	0.000190595
-132820	-11.7837	5.82811	1.65254	0.000249444
-133013	-18.0268	6.07624	1.94216	0.000325395
-133205	-18.4285	6.36826	2.27566	0.000423081
-133398	-10.7237	6.70953	2.65839	0.000548293
-133591	5.00142	7.10585	3.09613	0.000708235
-133784	25.6144	7.56341	3.59506	0.000911837
-133976	45.5445	8.08884	4.16181	0.00117013
-134169	58.6797	8.68916	4.80338	0.00149666
-134362	60.7509	9.37174	5.52713	0.00190806
-134555	50.5783	10.1443	6.34075	0.00242457
-134747	31.4395	11.0148	7.25221	0.0030708
-134940	9.68065	11.9915	8.26967	0.00387655
-135133	-7.66572	13.0827	9.40144	0.0048777
-135326	-15.6109	14.2968	10.6559	0.0061173
-135518	-13.1533	15.6421	12.0412	0.00764681
-135711	-3.60362	17.1269	13.5657	0.00952745
-135904	6.87992	18.759	15.2371	0.0118317
-136097	11.9573	20.5459	17.0628	0.0146452
-136289	7.87125	22.4946	19.0496	0.0180684
-136482	-4.84582	24.6112	21.2036	0.0222186
-136675	-21.4397	26.9011	23.5301	0.0272327
-136868	-34.7521	29.3685	26.033	0.0332691
-137060	-38.0307	32.0165	28.7153	0.0405104
-137253	-27.5735	34.8467	31.5785	0.0491663
-137446	-4.13333	37.8594	34.6225	0.0594763
-137638	27.4466	41.0529	37.8453	0.0717127
-137831	60.1559	44.4239	41.2435	0.0861834
-138024	87.444	47.9671	44.8112	0.103235
-138217	105.454	51.6751	48.5407	0.123255
-138409	113.982	55.5383	52.422	0.146677
-138602	115.883	59.5449	56.443	0.173977
-138795	115.3	63.6812	60.5891	0.205682
-138988	115.607	67.9308	64.8436	0.242369
-139180	117.993	72.2755	69.1876	0.284665
-139373	121.276	76.6949	73.6	0.333248
-139566	122.95	81.1667	78.0577	0.388844
-139759	120.874	85.6665	82.5358	0.45223
-139951	114.762	90.1686	87.0075	0.524226
-140144	106.714	94.646	91.4449	0.605694
-140337	100.536	99.0701	95.8188	0.697532
-140530	100.109	103.412	100.099	0.800664
-140722	107.581	107.642	104.255	0.916035
-140915	122.188	111.73	108.257	1.0446
-141108	140.269	115.647	112.072	1.1873
-141301	156.514	119.364	115.673	1.34509
-141493	165.949	122.852	119.029	1.51885
-141686	165.824	126.085	122.113	1.70944
-141879	156.652	129.038	124.899	1.91765
-142072	141.986	131.688	127.364	2.14418
-142264	127.027	134.013	129.486	2.38961
-142457	116.663	135.996	131.245	2.65442
-142650	113.696	137.622	132.628	2.93892
-142843	117.925	138.878	133.621	3.24325
-143035	126.371	139.755	134.216	3.56738
-143228	134.493	140.247	134.406	3.91106
-143421	137.871	140.353	134.191	4.2738
-143614	133.734	140.074	133.572	4.6549
-143806	121.825	139.414	132.556	5.05338
-143999	104.392	138.381	131.15	5.468
-144192	85.4185	136.987	129.368	5.89727
-144384	69.4075	135.245	127.225	6.33942
-144577	60.1323	133.172	124.74	6.7924
-144770	59.6693	130.787	121.935	7.25392
-144963	67.8972	128.111	118.834	7.72143
-145155	82.5115	125.169	115.462	8.19215
-145348	99.5098	121.984	111.848	8.66312
-145541	114.063	118.582	108.02	9.13116
-145734	121.643	114.991	104.008	9.59298
-145926	119.218	111.237	99.8439	10.0451
-146119	106.25	107.348	95.5571	10.4842
-146312	85.1766	103.35	91.1785	10.9066
-146505	61.1129	99.2703	86.7382	11.3089
-146697	40.6864	95.1346	82.2653	11.6876
-146890	30.2023	90.9673	77.7878	12.0394
-147083	33.6285	86.7919	73.3321	12.3612
-147276	51.0659	82.6303	68.9232	12.6501
-147468	78.3082	78.5027	64.5841	12.9033
-147661	107.79	74.4279	60.3356	13.1185
-147854	130.74	70.4224	56.1965	13.2936
-148047	139.903	66.5012	52.1836	13.427
-148239	131.894	62.6774	48.3111	13.5173
-148432	108.371	58.9622	44.5911	13.5636
-148625	75.5378	55.3649	41.0335	13.5655
-148818	42.1541	51.8931	37.6458	13.523
-149010	16.7199	48.5528	34.4336	13.4365
-149203	4.85217	45.3485	31.4005	13.3068
-149396	7.75295	42.2831	28.5483	13.1352
-149589	22.2514	39.3582	25.8769	12.9234
-149781	42.2917	36.5744	23.3847	12.6734
-149974	61.2084	33.9311	21.0688	12.3875
-150167	73.8876	31.4266	18.925	12.0684
-150360	78.0432	29.0587	16.9481	11.719
-150552	74.267	26.8245	15.1319	11.3425
-150745	65.0389	24.7202	13.4696	10.9421
-150938	53.2892	22.742	11.9538	10.5213
-151130	41.2011	20.8854	10.5765	10.0836
-151323	29.7371	19.1459	9.32972	9.63238
-151516	18.9595	17.5185	8.20509	9.17126
-151709	8.81795	15.9985	7.19426	8.70362
-151901	-0.130225	14.5808	6.28894	8.23278
-152094	-6.51712	13.2603	5.48097	7.76191
-152287	-8.62358	12.0323	4.76239	7.29401
-152480	-5.2656	10.8917	4.12555	6.83188
-152672	3.37545	9.83388	3.56309	6.37807
-152865	15.4624	8.85408	3.06803	5.9349
-153058	27.9769	7.94781	2.63379	5.50445
-153251	37.8034	7.11068	2.25419	5.0885
-153443	42.9445	6.33848	1.92348	4.68858
-153636	43.2958	5.62712	1.63635	4.30594
-153829	40.5922	4.97271	1.38787	3.94158
-154022	37.5178	4.3715	1.17358	3.59624
-154214	36.375	3.8199	0.989382	3.27041
-154407	37.9278	3.31447	0.83158	2.96437
-154600	40.98	2.85194	0.696838	2.67816
-154793	42.9115	2.4292	0.582168	2.41167
-154985	40.9618	2.04327	0.484901	2.16458
-155178	33.6842	1.69132	0.402667	1.93645
-155371	21.9057	1.37068	0.333371	1.72669
-155564	8.7278	1.07882	0.275168	1.5346
-155756	-1.472	0.813336	0.226441	1.35942
-155949	-4.63597	0.571971	0.185781	1.2003
-156142	1.44587	0.352604	0.151963	1.05633
-156335	16.3065	0.153243	0.123925	0.926583
-156527	36.9934	-0.0279751	0.100756	0.810112
-156720	59.1599	-0.192788	0.0816716	0.705963
-156913	78.5647	-0.34281	0.0660023	0.613189
-157105	92.3554	-0.479539	0.0531784	0.530862
-157298	99.6559	-0.604357	0.0427169	0.458084
-157491	101.329	-0.718538	0.03421	0.393989
-157684	99.1584	-0.823248	0.0273146	0.337753
-157876	94.9118	-0.919555	0.0217432	0.288595
-158069	89.7367	-1.00843	0.0172561	0.245785
-158262	84.0872	-1.09076	0.0136537	0.208639
-158455	78.0764	-1.16733	0.0107707	0.176528
-158647	71.9224	-1.23887	0.00847085	0.14887
-158840	66.138	-1.30601	0.00664199	0.125134
-159033	61.3136	-1.36934	0.00519228	0.104838
-159226	57.6308	-1.42935	0.00404675	0.0875463
-159418	54.4672	-1.48651	0.00314444	0.0728673
-159611	50.4568	-1.54121	0.00243595	0.060451
-159804	44.1514	-1.59381	0.0018814	0.0499861
-159997	35.0625	-1.64461	0.00144871	0.0411975
-160189	24.5664	-1.69388	0.00111217	0.033843
-160382	16.0898	-1.74185	0.000851236	0.0277103
-160575	14.2376	-1.78873	0.000649556	0.0226147
-160768	23.012	-1.83468	0.000494164	0.0183956
-160960	43.7639	-1.87986	0.000374813	0.0149147
-161153	73.7944	-1.92439	0.00028343	0.0120529
-161346	106.394	-1.96839	0.000213681	0.00970825
-161539	132.589	-2.01193	0.000160611	0.00779413
-161731	144.127	-2.05511	0.000120357	0.00623692
-161924	136.653	-2.09798	8.99198e-05	0.00497448
-162117	111.759	-2.1406	6.69774e-05	0.00395459
-162310	76.9602	-2.18302	4.97382e-05	0.0031335
-162502	43.3887	-2.22527	3.68248e-05	0.00247477
-162695	21.9243	-2.26738	2.71818e-05	0.00194812
-162888	19.1762	-2.30939	2.00034e-05	0.00152852
-163081	34.8848	-2.35131	1.46764e-05	0.00119537
-163273	61.8284	-2.39315	1.07355e-05	0.000931771
-163466	88.3792	-2.43494	7.82914e-06	0.000723923
-163659	102.811	-2.47669	5.69238e-06	0.000560596
-163851	97.7452	-2.51839	4.12631e-06	0.000432697
-164044	73.0285	-2.56007	2.98208e-06	0.000332885
-164237	35.9308	-2.60173	2.14864e-06	0.000255258
-164430	-1.47722	-2.64337	1.54346e-06	0.000195092
-164622	-26.966	-2.685	1.1054e-06	0.000148619
-164815	-31.6031	-2.72661	7.89275e-07	0.000112846
-165008	-13.8855	-2.76822	5.61858e-07	8.54033e-05
-165201	20.2742	-2.80982	3.98761e-07	6.44226e-05
-165393	59.8099	-2.85141	2.82155e-07	4.84369e-05
-165586	92.4685	-2.893	1.99045e-07	3.62987e-05
-165779	108.958	-2.93459	1.39992e-07	2.71132e-05
-165972	105.778	-2.97618	9.81618e-08	2.01858e-05
-166164	85.8326	-3.01776	6.86232e-08	1.49792e-05
-166357	56.8054	-3.05934	4.78286e-08	1.10791e-05
-166550	28.1024	-3.10092	3.32347e-08	8.16763e-06
-166743	7.6028	-3.14251	2.30242e-08	6.00156e-06
-166935	-0.624325	-3.18409	1.59026e-08	4.39549e-06
-167128	3.01528	-3.22567	1.09506e-08	3.20868e-06
-167321	14.5566	-3.26725	7.51788e-09	2.33465e-06
-167514	28.3605	-3.30882	5.14567e-09	1.69313e-06
-167706	39.1155	-3.3504	3.51137e-09	1.22388e-06
-167899	43.234	-3.39198	2.38891e-09	8.81777e-07
-168092	39.328	-3.43356	1.62036e-09	6.33222e-07
-168285	27.8906	-3.47514	1.09575e-09	4.5324e-07
-168477	10.6061	-3.51672	7.38758e-10	3.23353e-07
-168670	-10.2599	-3.5583	4.96573e-10	2.29933e-07
-168863	-32.148	-3.59988	3.3278e-10	1.62967e-07
-169056	-52.2194	-3.64146	2.22347e-10	1.15126e-07
-169248	-67.3708	-3.68303	1.48124e-10	8.10636e-08
-169441	-74.5432	-3.72461	9.8396e-11	5.68921e-08
-169634	-71.4379	-3.76619	6.51907e-11	3.97973e-08
-169827	-57.465	-3.80777	4.31001e-11	2.7748e-08
-170019	-34.5169	-3.84935	2.84706e-11	1.92834e-08
-170212	-7.1097	-3.89093	1.88453e-11	1.33571e-08
-170405	18.383	-3.93251	1.25836e-11	9.22184e-09
-170597	35.3284	-3.97408	8.60262e-12	6.34596e-09
-170790	38.823	-4.01566	6.20379e-12	4.35264e-09
-170983	27.4037	-4.05724	4.95947e-12	2.97566e-09
-171176	3.83935	-4.09882	4.64221e-12	2.02764e-09
-171368	-25.358	-4.1404	5.18605e-12	1.37712e-09
-171561	-51.6292	-4.18198	6.674e-12	9.32247e-10
-171754	-66.7758	-4.22356	9.34919e-12	6.2902e-10
-171947	-65.3285	-4.26513	1.36513e-11	4.23032e-10
-172139	-46.127	-4.30671	2.02828e-11	2.83569e-10
-172332	-12.6267	-4.34829	3.03145e-11	1.8946e-10
-172525	28.143	-4.38987	4.53446e-11	1.26169e-10
-172718	67.6143	-4.43145	6.77322e-11	8.37463e-11
-172910	98.0668	-4.47303	1.00937e-10	5.54055e-11
-173103	114.642	-4.51461	1.50011e-10	3.65355e-11
-173296	116.415	-4.55619	2.22298e-10	2.40134e-11
-173489	106.277	-4.59776	3.28443e-10	1.57314e-11
-173681	89.7284	-4.63934	4.83817e-10	1.02721e-11
-173874	73.0277	-4.68092	7.1055e-10	6.68534e-12
-174067	61.2808	-4.7225	1.0404e-09	4.33677e-12
-174260	57.0462	-4.76408	1.51877e-09	2.80407e-12
-174452	59.8479	-4.80566	2.21041e-09	1.80716e-12
-174645	66.6842	-4.84724	3.20732e-09	1.16092e-12
-174838	73.3101	-4.88881	4.63982e-09	7.43443e-13
-175031	75.832	-4.93039	6.69188e-09	4.74706e-13
-175223	72.062	-4.97197	9.62239e-09	3.02396e-13
-175416	62.1776	-5.01355	1.37945e-08	1.92451e-13
-175609	48.4809	-5.05513	1.9716e-08	1.22804e-13
-175802	34.3775	-5.09671	2.80943e-08	7.92671e-14
-175994	22.9891	-5.13829	3.99123e-08	5.28411e-14
-176187	15.9527	-5.17986	5.65306e-08	3.79835e-14
-176380	12.8953	-5.22144	7.98268e-08	3.15234e-14
-176572	11.809	-5.26302	1.12383e-07	3.20296e-14
-176765	10.1732	-5.3046	1.57741e-07	3.95142e-14
-176958	6.3489	-5.34618	2.20736e-07	5.54144e-14
-177151	0.6129	-5.38776	3.07959e-07	8.28462e-14
-177343	-4.68427	-5.42934	4.2835e-07	1.27168e-13
-177536	-6.0043	-5.47091	5.94011e-07	1.96952e-13
-177729	-0.2645	-5.51249	8.21254e-07	3.05517e-13
-177922	13.4211	-5.55407	1.13201e-06	4.73283e-13
-178114	32.6843	-5.59565	1.55564e-06	7.31325e-13
-178307	52.1005	-5.63723	2.13137e-06	1.12669e-12
-178500	64.7347	-5.67881	2.91135e-06	1.73031e-12
-178693	64.565	-5.72038	3.96479e-06	2.64875e-12
-178885	48.8882	-5.76196	5.38311e-06	4.04147e-12
-179078	19.7398	-5.80354	7.28677e-06	6.14635e-12
-179271	-16.3297	-5.84511	9.83389e-06	9.3169e-12
-179464	-50.1617	-5.88669	1.32313e-05	1.40767e-11
-179656	-72.957	-5.92826	1.77489e-05	2.11986e-11
-179849	-79.2264	-5.96984	2.3737e-05	3.18192e-11
-180042	-68.6133	-6.01141	3.16497e-05	4.76044e-11
-180235	-45.8839	-6.05297	4.20727e-05	7.09872e-11
-180427	-19.0832	-6.09454	5.57598e-05	1.05509e-10
-180620	3.43275	-6.1361	7.36766e-05	1.56305e-10
-180813	15.9405	-6.17765	9.70569e-05	2.30799e-10
-181006	17.1465	-6.2192	0.000127471	3.39679e-10
-181198	10.1911	-6.26074	0.000166911	4.98287e-10
-181391	0.944	-6.30227	0.000217895	7.28562e-10
-181584	-4.64225	-6.34378	0.000283594	1.06177e-09
-181777	-2.99585	-6.38528	0.000367989	1.54229e-09
-181969	5.79565	-6.42675	0.000476061	2.23296e-09
-182162	18.3649	-6.46819	0.000614013	3.22232e-09
-182355	29.8584	-6.50959	0.000789552	4.63483e-09
-182548	36.3056	-6.55095	0.00101221	6.64468e-09
-182740	36.5052	-6.59225	0.00129376	9.4949e-09
-182933	32.6005	-6.63347	0.00164862	1.35233e-08
-183126	29.1036	-6.6746	0.00209449	1.91977e-08
-183318	30.8044	-6.71562	0.00265292	2.71639e-08
-183511	40.4767	-6.7565	0.00335009	3.83098e-08
-183704	57.3822	-6.79721	0.00421773	5.38522e-08
-183897	77.2281	-6.83772	0.00529406	7.54524e-08
-184089	93.6209	-6.87796	0.00662503	1.0537e-07
-184282	100.441	-6.9179	0.0082656	1.46669e-07
-184475	94.1856	-6.95746	0.0102813	2.03486e-07
-184668	75.3491	-6.99657	0.0127501	2.81389e-07
-184860	48.3237	-7.03514	0.0157639	3.87842e-07
-185053	19.8757	-7.07305	0.0194315	5.32817e-07
-185246	-3.18327	-7.11018	0.02388	7.29586e-07
-185439	-16.2355	-7.14638	0.0292584	9.95752e-07
-185631	-18.1943	-7.18148	0.0357401	1.35457e-06
-185824	-11.5103	-7.21527	0.0435261	1.83665e-06
-186017	-0.94375	-7.24752	0.0528483	2.48215e-06
-186210	8.35938	-7.27798	0.0639737	3.34352e-06
-186402	12.7348	-7.30632	0.0772076	4.48907e-06
-186595	11.1513	-7.33221	0.0928981	6.00737e-06
-186788	5.30192	-7.35524	0.11144	8.01287e-06
-186981	-1.3011	-7.37498	0.13328	1.06529e-05
-187173	-4.82242	-7.39091	0.15892	1.41163e-05
-187366	-3.09327	-7.40249	0.18892	1.86446e-05
-187559	4.5801	-7.40907	0.223906	2.45447e-05
-187752	16.3791	-7.40998	0.264572	3.22062e-05
-187944	28.4769	-7.40444	0.31168	4.21208e-05
-188137	36.4633	-7.39162	0.366068	5.49072e-05
-188330	36.7856	-7.3706	0.428651	7.13408e-05
-188523	27.9647	-7.34039	0.50042	9.23893e-05
-188715	11.2202	-7.29991	0.582442	0.000119256
-188908	-9.6992	-7.24804	0.675865	0.000153432
-189101	-29.4685	-7.18353	0.781907	0.000196756
-189294	-42.6904	-7.1051	0.901859	0.000251486
-189486	-45.5366	-7.01139	1.03708	0.000320387
-189679	-37.032	-6.90099	1.18897	0.00040683
-189872	-19.5388	-6.77243	1.359	0.000514904
-190064	1.79135	-6.62422	1.54866	0.000649554
-190257	20.5167	-6.45482	1.75947	0.000816731
-190450	30.9361	-6.26272	1.99295	0.00102357
-190643	30.0019	-6.04639	2.2506	0.0012786
-190835	18.4362	-5.80436	2.53389	0.00159194
-191028	0.6027	-5.5352	2.84424	0.00197557
-191221	-16.8984	-5.23758	3.18298	0.00244363
-191414	-27.4674	-4.91026	3.55131	0.00301268
-191606	-26.7911	-4.55213	3.95032	0.00370209
-191799	-14.3347	-4.16229	4.38091	0.00453436
-191992	6.53355	-3.74	4.84378	0.00553555
-192185	29.8478	-3.28475	5.33941	0.00673567
-192377	49.2832	-2.7963	5.868	0.00816915
-192570	60.4563	-2.2747	6.42947	0.00987525
-192763	62.3829	-1.7203	7.02343	0.0118986
-192956	57.5305	-1.13381	7.64911	0.0142895
-193148	50.4774	-0.516266	8.30541	0.0171047
-193341	45.7695	0.130877	8.99083	0.0204075
-193534	45.8938	0.805793	9.70347	0.0242683
-193727	50.2286	1.50625	10.441	0.0287651
-193919	55.4036	2.2296	11.2007	0.0339833
-194112	56.8877	2.97282	11.9795	0.0400168
-194305	51.0951	3.73246	12.7737	0.0469672
-194498	37.0784	4.50471	13.5796	0.0549442
-194690	17.0732	5.28541	14.3928	0.0640656
-194883	-4.33348	6.07007	15.2086	0.0744567
-195076	-22.0306	6.85391	16.0222	0.0862498
-195269	-32.3949	7.63192	16.8285	0.0995837
-195461	-34.6152	8.39888	17.622	0.114602
-195654	-30.7783	9.14944	18.3973	0.131454
-195847	-24.7287	9.87818	19.1488	0.150291
-196039	-20.2582	10.5796	19.8708	0.171263
-196232	-19.4551	11.2484	20.558	0.194523
-196425	-21.9426	11.8793	21.2047	0.220219
-196618	-25.3026	12.4671	21.8058	0.248493
-196810	-26.4322	13.0071	22.3564	0.279479
-197003	-23.1617	13.4946	22.8517	0.3133
-197196	-15.3749	13.9257	23.2875	0.350063
-197389	-5.13355	14.2965	23.6601	0.389859
-197581	4.20995	14.6039	23.9662	0.432757
-197774	9.4529	14.8452	24.203	0.478803
-197967	8.84793	15.0182	24.3685	0.528014
-198160	2.68543	15.1216	24.4611	0.580376
-198352	-7.0559	15.1544	24.48	0.635842
-198545	-17.7407	15.1163	24.425	0.694327
-198738	-27.227	15.0078	24.2967	0.75571
-198931	-34.5604	14.8298	24.0961	0.819826
-199123	-39.9164	14.5839	23.8252	0.886469
-199316	-43.9215	14.2723	23.4862	0.955391
-199509	-46.8238	13.8977	23.0823	1.0263
-199702	-48.0646	13.4632	22.6168	1.09886
-199894	-46.5636	12.9727	22.094	1.1727
-200087	-41.6084	12.4299	21.5181	1.2474
-200280	-33.8358	11.8394	20.8941	1.32252
-200473	-25.6605	11.2057	20.2269	1.39757
-200665	-20.7133	10.5338	19.5221	1.47204
-200858	-22.3445	9.82841	18.7849	1.54541
-201051	-31.7842	9.09472	18.0211	1.61712
-201244	-46.852	8.33774	17.2362	1.68661
-201436	-61.9984	7.56247	16.4358	1.75333
-201629	-69.9374	6.77376	15.6253	1.81672
-201822	-64.4108	5.97636	14.8099	1.87624
-202015	-43.0249	5.17478	13.9948	1.93137
-202207	-8.93185	4.37329	13.1847	1.9816
-202400	29.5108	3.57589	12.384	2.02649
-202593	61.1769	2.78627	11.5968	2.0656
-202785	75.9005	2.0078	10.8269	2.09858
-202978	68.0983	1.24349	10.0777	2.1251
-203171	38.8566	0.496042	9.35201	2.14491
-203364	-4.37005	-0.232231	8.65241	2.15781
-203556	-50.3558	-0.939341	7.981	2.16369
-203749	-87.9793	-1.62364	7.3395	2.16248
-203942	-109.859	-2.2838	6.7292	2.15419
-204135	-114.36	-2.91882	6.15104	2.1389
-204327	-105.293	-3.52797	5.60561	2.11677
-204520	-89.5982	-4.11078	5.09313	2.08801
-204713	-74.12	-4.66706	4.61355	2.0529
-204906	-62.8924	-5.19679	4.16653	2.01176
-205098	-56.0313	-5.70019	3.75147	1.965
-205291	-50.5603	-6.17763	3.36757	1.91304
-205484	-42.6108	-6.62962	3.01384	1.85635
-205677	-29.8554	-7.05681	2.68914	1.79545
-205869	-12.9981	-7.45994	2.39218	1.73086
-206062	4.35367	-7.83984	2.12159	1.66312
-206255	17.3148	-8.19738	1.87594	1.59281
-206448	22.0207	-8.53351	1.65373	1.52047
-206640	17.4816	-8.84918	1.45344	1.44667
-206833	6.11805	-9.14536	1.27356	1.37194
-207026	-7.2522	-9.42306	1.11258	1.29681
-207219	-17.4706	-9.68323	0.969014	1.22178
-207411	-21.1651	-9.92685	0.841429	1.14733
-207604	-17.9799	-10.1549	0.728438	1.07388
-207797	-10.4041	-10.3682	0.628719	1.00184
-207990	-2.37888	-10.5677	0.541014	0.931577
-208182	2.57325	-10.7544	0.46414	0.863404
-208375	2.77352	-10.9289	0.396989	0.7976
-208568	-1.268	-11.0921	0.338529	0.734398
-208761	-7.63337	-11.2449	0.287807	0.67399
-208953	-14.3556	-11.3878	0.243947	0.616525
-209146	-20.5273	-11.5216	0.206147	0.562114
-209339	-26.4947	-11.6469	0.173679	0.510826
-209531	-33.014	-11.7644	0.145884	0.462698
-209724	-39.8672	-11.8746	0.122167	0.417732
-209917	-44.8233	-11.9782	0.101997	0.375901
-210110	-43.7381	-12.0757	0.0849011	0.337151
-210302	-32.0528	-12.1674	0.0704572	0.301405
-210495	-7.1906	-12.254	0.0582943	0.268568
-210688	29.2276	-12.3358	0.0480856	0.238524
-210881	70.5466	-12.4133	0.039545	0.211147
-211073	106.328	-12.4869	0.0324233	0.186301
-211266	125.52	-12.5568	0.026504	0.16384
-211459	120.461	-12.6235	0.0216	0.143615
-211652	90.1223	-12.6873	0.0175503	0.125475
-211844	41.1764	-12.7484	0.0142168	0.109267
-212037	-13.7404	-12.8072	0.0114818	0.0948407
-212230	-60.0499	-12.8638	0.00924498	0.0820498
-212423	-86.0689	-12.9185	0.00742147	0.0707515
-212615	-86.8123	-12.9715	0.00593967	0.0608093
-212808	-65.3082	-13.023	0.00473939	0.052093
-213001	-30.9782	-13.0731	0.00377026	0.04448
-213194	4.17545	-13.1221	0.00299026	0.0378552
-213386	29.9755	-13.1701	0.00236447	0.0321116
-213579	41.2988	-13.2171	0.00186401	0.0271503
-213772	38.9518	-13.2634	0.00146504	0.0228803
-213965	28.0781	-13.3089	0.001148	0.0192187
-214157	15.0455	-13.3539	0.000896851	0.0160903
-214350	4.34925	-13.3983	0.000698534	0.013427
-214543	-3.06245	-13.4423	0.000542429	0.0111678
-214736	-9.39905	-13.4859	0.00041994	0.00925836
-214928	-17.9561	-13.5292	0.00032413	0.00765024
-215121	-30.5411	-13.5722	0.000249425	0.00630075
-215314	-45.785	-13.615	0.000191359	0.00517231
-215507	-59.2549	-13.6575	0.000146368	0.00423207
-215699	-65.3699	-13.6999	0.000111617	0.00345141
-215892	-60.2079	-13.7422	8.48606e-05	0.00280553
-216085	-43.8194	-13.7843	6.43233e-05	0.00227306
-216277	-20.8521	-13.8263	4.86092e-05	0.00183561
-216470	0.92605	-13.8683	3.66233e-05	0.0014775
-216663	13.6347	-13.9102	2.75097e-05	0.00118536
-216856	12.5007	-13.952	2.06016e-05	0.000947863
-217048	-2.15718	-13.9938	1.53817e-05	0.000755472
-217241	-25.0913	-14.0355	1.14498e-05	0.00060016
-217434	-48.3741	-14.0772	8.49724e-06	0.000475216
-217627	-64.7225	-14.1189	6.28705e-06	0.000375051
-217819	-70.4008	-14.1606	4.63771e-06	0.00029503
-218012	-66.4063	-14.2022	3.41075e-06	0.000231322
-218205	-57.4476	-14.2438	2.50083e-06	0.000180777
-218398	-49.2538	-14.2854	1.82813e-06	0.000140814
-218590	-45.5307	-14.3271	1.33235e-06	0.000109326
-218783	-46.0409	-14.3687	9.6809e-07	8.46012e-05
-218976	-46.7485	-14.4103	7.01299e-07	6.52537e-05
-219169	-41.9858	-14.4519	5.06499e-07	5.0166e-05
-219361	-27.6255	-14.4934	3.64706e-07	3.84406e-05
-219554	-3.72557	-14.535	2.61815e-07	2.93593e-05
-219747	24.678	-14.5766	1.87385e-07	2.235e-05
-219940	49.1356	-14.6182	1.3371e-07	1.69583e-05
-220132	61.1185	-14.6598	9.51223e-08	1.28253e-05
-220325	55.7006	-14.7014	6.74665e-08	9.66772e-06
-220518	33.9437	-14.7429	4.7707e-08	7.2637e-06
-220711	2.8754	-14.7845	3.36329e-08	5.4396e-06
-220903	-27.0238	-14.8261	2.36393e-08	4.06024e-06
-221096	-45.8139	-14.8677	1.65651e-08	3.02073e-06
-221289	-47.9076	-14.9093	1.15729e-08	2.24e-06
-221482	-34.1115	-14.9508	8.06078e-09	1.65562e-06
-221674	-11.0585	-14.9924	5.59759e-09	1.21968e-06
-221867	11.6805	-15.034	3.87537e-09	8.95592e-07
-222060	25.5486	-15.0756	2.67494e-09	6.55464e-07
-222252	26.3399	-15.1172	1.84079e-09	4.78148e-07
-222445	15.6142	-15.1587	1.26293e-09	3.47658e-07
-222638	-0.20785	-15.2003	8.63866e-10	2.51952e-07
-222831	-13.683	-15.2419	5.89116e-10	1.81995e-07
-223023	-18.7884	-15.2835	4.00537e-10	1.31031e-07
-223216	-13.7052	-15.3251	2.71502e-10	9.40301e-08
-223409	-1.24088	-15.3666	1.83482e-10	6.72566e-08
-223602	12.8241	-15.4082	1.23623e-10	4.79488e-08
-223794	22.6172	-15.4498	8.30416e-11	3.40719e-08
-223987	24.9296	-15.4914	5.56135e-11	2.41319e-08
-224180	20.6066	-15.5329	3.71323e-11	1.70358e-08
-224373	13.9928	-15.5745	2.4718e-11	1.19869e-08
-224565	10.7373	-15.6161	1.64045e-11	8.40676e-09
-224758	14.9878	-15.6577	1.08542e-11	5.87659e-09
-224951	27.2484	-15.6993	7.1602e-12	4.09447e-09
-225144	43.8536	-15.7408	4.70912e-12	2.84345e-09
-225336	58.2884	-15.7824	3.08775e-12	1.9682e-09
-225529	63.7934	-15.824	2.01852e-12	1.3579e-09
-225722	56.1598	-15.8656	1.31556e-12	9.33778e-10
-225915	35.575	-15.9072	8.54829e-13	6.40021e-10
-226107	6.7996	-15.9487	5.53777e-13	4.3724e-10
-226300	-22.3576	-15.9903	3.57667e-13	2.9773e-10
-226493	-43.6412	-16.0319	2.30309e-13	2.02069e-10
-226686	-51.0425	-16.0735	1.47854e-13	1.36695e-10
-226878	-42.6409	-16.115	9.46327e-14	9.21681e-11
-227071	-21.041	-16.1566	6.03864e-14	6.19419e-11
-227264	7.60448	-16.1982	3.84171e-14	4.1492e-11
-227457	35.5336	-16.2398	2.43668e-14	2.77026e-11
-227649	55.5818	-16.2814	1.54085e-14	1.84353e-11
-227842	63.0044	-16.3229	9.71431e-15	1.22281e-11
-228035	56.4952	-16.3645	6.10592e-15	8.08424e-12
-228228	38.2753	-16.4061	3.8263e-15	5.32718e-12
-228420	13.3697	-16.4477	2.39053e-15	3.49889e-12
-228613	-11.677	-16.4893	1.48901e-15	2.29055e-12
-228806	-30.3568	-16.5308	9.24679e-16	1.4946e-12
-228998	-37.7327	-16.5724	5.72495e-16	9.72039e-13
-229191	-31.6612	-16.614	3.53379e-16	6.30115e-13
-229384	-13.4194	-16.6556	2.1747e-16	4.07128e-13
-229577	12.4907	-16.6971	1.33427e-16	2.62191e-13
-229769	39.4334	-16.7387	8.16166e-17	1.68299e-13
-229962	60.4473	-16.7803	4.97738e-17	1.07676e-13
-230155	70.3167	-16.8219	3.0263e-17	6.86645e-14
-230348	67.2572	-16.8635	1.83447e-17	4.36437e-14
-230540	53.5927	-16.905	1.10866e-17	2.76494e-14
-230733	35.0705	-16.9466	6.67997e-18	1.74593e-14
-230926	18.9315	-16.9882	4.01272e-18	1.09886e-14
-231119	11.3426	-17.0298	2.40321e-18	6.89342e-15
-231311	15.1073	-17.0714	1.43493e-18	4.31024e-15
-231504	28.5399	-17.1129	8.54203e-19	2.68624e-15
-231697	45.9986	-17.1545	5.06966e-19	1.66864e-15
-231890	59.946	-17.1961	2.99975e-19	1.03314e-15
-232082	63.8004	-17.2377	1.76961e-19	6.37569e-16
-232275	54.4951	-17.2792	1.04079e-19	3.92168e-16
-232468	33.7496	-17.3208	6.10284e-20	2.40433e-16
-232661	7.53937	-17.3624	3.56772e-20	1.46923e-16
-232853	-16.0426	-17.404	2.0794e-20	8.94874e-17
-233046	-29.7121	-17.4456	1.2083e-20	5.43263e-17
-233239	-29.5828	-17.4871	7.00001e-21	3.28725e-17
-233432	-16.4461	-17.5287	4.04307e-21	1.98259e-17
-233624	4.69653	-17.5703	2.32816e-21	1.19181e-17
-233817	26.597	-17.6119	1.3366e-21	7.14096e-18
-234010	42.4048	-17.6535	7.65031e-22	4.26464e-18
-234203	47.9688	-17.695	4.36561e-22	2.53854e-18
-234395	42.9794	-17.7366	2.4837e-22	1.50612e-18
-234588	30.6475	-17.7782	1.40878e-22	8.90663e-19
-234781	16.1998	-17.8198	7.96659e-23	5.24978e-19
-234974	4.88655	-17.8613	4.4915e-23	3.08422e-19
-235166	0.287275	-17.9029	2.52464e-23	1.80603e-19
-235359	3.4679	-17.9445	1.4148e-23	1.05409e-19
-235552	13.1274	-17.9861	7.90459e-24	6.13211e-20
-235744	26.4697	-18.0277	4.40303e-24	3.55563e-20
-235937	40.3228	-18.0692	2.44519e-24	2.05493e-20
-236130	52.0509	-18.1108	1.35382e-24	1.18374e-20
-236323	60.0222	-18.1524	7.47308e-25	6.79654e-21
-236515	63.6502	-18.194	4.11269e-25	3.88952e-21
-236708	63.1946	-18.2356	2.25652e-25	2.21861e-21
-236901	59.5227	-18.2771	1.23436e-25	1.26136e-21
-237094	53.9168	-18.3187	6.73184e-26	7.14785e-22
-237286	47.8793	-18.3603	3.66027e-26	4.03726e-22
-237479	42.8314	-18.4019	1.98418e-26	2.27286e-22
-237672	39.6775	-18.4435	1.07235e-26	1.27537e-22
-237865	38.3577	-18.485	5.77804e-27	7.13301e-23
-238057	37.6439	-18.5266	3.10394e-27	3.97637e-23
-238250	35.4249	-18.5682	1.66239e-27	2.20941e-23
-238443	29.5411	-18.6098	8.87653e-28	1.2236e-23
-238636	18.9357	-18.6513	4.72543e-28	6.75429e-24
-238828	4.6322	-18.6929	2.508e-28	3.71617e-24
-239021	-10.011	-18.7345	1.32709e-28	2.03792e-24
-239214	-20.0984	-18.7761	7.00106e-29	1.11392e-24
-239407	-20.935	-18.8177	3.68226e-29	6.06871e-25
-239599	-10.1038	-18.8592	1.93087e-29	3.29545e-25
-239792	10.9976	-18.9008	1.00944e-29	1.78365e-25
-239985	36.9649	-18.9424	5.26136e-30	9.62228e-26
-240178	59.8598	-18.984	2.73402e-30	5.17396e-26
-240370	71.9731	-19.0256	1.41643e-30	2.77296e-26
-240563	68.8736	-19.0671	7.31603e-31	1.48129e-26
-240756	51.482	-19.1087	3.76743e-31	7.88699e-27
-240949	26.1805	-19.1503	1.93421e-31	4.18561e-27
-241141	2.70547	-19.1919	9.9003e-32	2.21402e-27
-241334	-9.5088	-19.2334	5.05223e-32	1.16729e-27
-241527	-5.15473	-19.275	2.57043e-32	6.13415e-28
-241719	14.5189	-19.3166	1.30382e-32	3.21295e-28
-241912	41.7667	-19.3582	6.5935e-33	1.67737e-28
-242105	65.0322	-19.3998	3.32433e-33	8.72831e-29
-242298	73.3222	-19.4413	1.67101e-33	4.52696e-29
-242490	60.5976	-19.4829	8.37421e-34	2.34023e-29
-242683	28.4265	-19.5245	4.18405e-34	1.20583e-29
-242876	-14.2171	-19.5661	2.08419e-34	6.19285e-30
-243069	-54.0196	-19.6077	1.03506e-34	3.17007e-30
-243261	-78.1326	-19.6492	5.12489e-35	1.61742e-30
-243454	-78.8885	-19.6908	2.52983e-35	8.22534e-31
-243647	-56.6215	-19.7324	1.24504e-35	4.16927e-31
-243840	-19.5285	-19.774	6.10896e-36	2.1064e-31
-244032	19.3482	-19.8155	2.9884e-36	1.06071e-31
-244225	46.8284	-19.8571	1.45746e-36	5.32391e-32
-244418	54.1997	-19.8987	7.08673e-37	2.66341e-32
-244611	40.0258	-19.9403	3.43543e-37	1.32807e-32
-244803	10.2201	-19.9819	1.66037e-37	6.60058e-33
-244996	-24.4805	-20.0234	8.00053e-38	3.26977e-33
-245189	-52.5496	-20.065	3.84344e-38	1.61446e-33
-245382	-65.6389	-20.1066	1.84081e-38	7.94536e-34
-245574	-61.0711	-20.1482	8.78996e-39	3.8974e-34
-245767	-42.1209	-20.1898	4.18459e-39	1.90552e-34
-245960	-16.2393	-20.2313	1.98613e-39	9.28594e-35
-246153	7.8943	-20.2729	9.39831e-40	4.51039e-35
-246345	23.3008	-20.3145	4.43385e-40	2.18363e-35
-246538	26.6018	-20.3561	2.08545e-40	1.0537e-35
-246731	18.4221	-20.3976	9.77924e-41	5.06797e-36
-246924	2.45088	-20.4392	4.57202e-41	2.42954e-36
-247116	-16.2281	-20.4808	2.13109e-41	1.16089e-36
-247309	-32.7996	-20.5224	9.90298e-42	5.52883e-37
-247502	-43.8209	-20.564	4.58785e-42	2.62453e-37
-247695	-47.581	-20.6055	2.11876e-42	1.24178e-37
-247887	-43.8745	-20.6471	9.75304e-43	5.85617e-38
-248080	-33.5295	-20.6887	4.48416e-43	2.7527e-38
-248273	-18	-20.7303	2.0459e-43	1.28967e-38
-248465	0.83955	-20.7719	9.3887e-44	6.02246e-39
-248658	20.7586	-20.8134	4.2039e-44	2.80314e-39
-248851	39.2582	-20.855	1.96182e-44	1.30045e-39
-249044	53.8186	-20.8966	8.40779e-45	6.01334e-40
-249236	62.317	-20.9382	4.2039e-45	2.77149e-40
-249429	63.4868	-20.9797	1.4013e-45	1.27318e-40
-249622	57.2304	-21.0213	1.4013e-45	5.82954e-41
-249815	44.6418	-21.0629	0	2.66051e-41
-250007	27.7248	-21.1045	0	1.21016e-41
-250200	8.9221	-21.1461	0	5.48748e-42
-250393	-9.36615	-21.1876	0	2.4803e-42
-250586	-25.1262	-21.2292	0	1.11683e-42
-250778	-36.8913	-21.2708	0	5.01665e-43
-250971	-43.7752	-21.3124	0	2.24208e-43
-251164	-45.4718	-21.354	0	9.94922e-44
-251357	-42.2765	-21.3955	0	4.48416e-44
-251549	-33.8313	-21.4371	0	1.96182e-44
-251742	-22.1305	-21.4787	0	8.40779e-45
-251935	-9.43505	-21.5203	0	4.2039e-45
-252128	2.95045	-21.5618	0	1.4013e-45
-252320	14.4852	-21.6034	0	1.4013e-45
-252513	25.6012	-21.645	0	0
-252706	37.4376	-21.6866	0	0
-252899	51.0844	-21.7282	0	0
-253091	66.6031	-21.7697	0	0
-253284	82.2879	-21.8113	0	0
-253477	94.6475	-21.8529	0	0
-253670	99.3325	-21.8945	0	0
-253862	92.8149	-21.9361	0	0
-254055	74.1985	-21.9776	0	0
-254248	46.3394	-22.0192	0	0
-254441	15.6067	-22.0608	0	0
-254633	-9.8761	-22.1024	0	0
-254826	-23.0151	-22.1439	0	0
-255019	-20.5089	-22.1855	0	0
-255211	-4.41927	-22.2271	0	0
-255404	18.2644	-22.2687	0	0
-255597	38.0983	-22.3103	0	0
-255790	46.8509	-22.3518	0	0
-255982	40.9358	-22.3934	0	0
-256175	23.151	-22.435	0	0
-256368	1.88302	-22.4766	0	0
-256561	-12.058	-22.5182	0	0
-256753	-9.78955	-22.5597	0	0
-256946	11.8466	-22.6013	0	0
-257139	48.6386	-22.6429	0	0
-257332	90.2653	-22.6845	0	0
-257524	124.04	-22.7261	0	0
-257717	139.661	-22.7676	0	0
-257910	133.059	-22.8092	0	0
-258103	107.767	-22.8508	0	0
-258295	73.2799	-22.8924	0	0
-258488	41.1086	-22.9339	0	0
-258681	20.2	-22.9755	0	0
-258874	13.6402	-23.0171	0	0
-259066	17.9789	-23.0587	0	0
-259259	25.3743	-23.1003	0	0
-259452	27.5394	-23.1418	0	0
-259645	19.7181	-23.1834	0	0
-259837	2.93192	-23.225	0	0
-260030	-16.4597	-23.2666	0	0
-260223	-29.6594	-23.3082	0	0
-260416	-29.4725	-23.3497	0	0
-260608	-13.6926	-23.3913	0	0
-260801	13.665	-23.4329	0	0
-260994	43.8111	-23.4745	0	0
-261186	66.6748	-23.516	0	0
-261379	74.921	-23.5576	0	0
-261572	66.7882	-23.5992	0	0
-261765	45.7952	-23.6408	0	0
-261957	20.4742	-23.6824	0	0
-262150	0.504175	-23.7239	0	0
-262343	-7.98965	-23.7655	0	0
-262536	-3.80935	-23.8071	0	0
-262728	9.46975	-23.8487	0	0
-262921	25.5892	-23.8903	0	0
-263114	38.5541	-23.9318	0	0
-263307	45.0682	-23.9734	0	0
-263499	45.4269	-24.015	0	0
-263692	42.6253	-24.0566	0	0
-263885	40.2775	-24.0981	0	0
-264078	40.4604	-24.1397	0	0
-264270	42.5517	-24.1813	0	0
-264463	43.5877	-24.2229	0	0
-264656	39.8968	-24.2645	0	0
-264849	29.1481	-24.306	0	0
-265041	11.7751	-24.3476	0	0
-265234	-8.92978	-24.3892	0	0
-265427	-28.0899	-24.4308	0	0
-265620	-41.2603	-24.4724	0	0
-265812	-46.2116	-24.5139	0	0
-266005	-43.6463	-24.5555	0	0
-266198	-36.5494	-24.5971	0	0
-266391	-28.5509	-24.6387	0	0
-266583	-22.1503	-24.6802	0	0
-266776	-17.6978	-24.7218	0	0
-266969	-13.6271	-24.7634	0	0
-267162	-7.78495	-24.805	0	0
-267354	0.864775	-24.8466	0	0
-267547	11.0932	-24.8881	0	0
-267740	19.4872	-24.9297	0	0
-267932	21.8238	-24.9713	0	0
-268125	15.1392	-25.0129	0	0
-268318	-0.495675	-25.0545	0	0
-268511	-21.4073	-25.096	0	0
-268703	-41.3457	-25.1376	0	0
-268896	-53.7649	-25.1792	0	0
-269089	-54.4114	-25.2208	0	0
-269282	-43.098	-25.2623	0	0
-269474	-23.8602	-25.3039	0	0
-269667	-3.3953	-25.3455	0	0
-269860	11.5735	-25.3871	0	0
-270053	16.8938	-25.4287	0	0
-270245	12.4613	-25.4702	0	0
-270438	1.99582	-25.5118	0	0
-270631	-8.71535	-25.5534	0	0
-270824	-14.2908	-25.595	0	0
-271016	-11.8603	-25.6366	0	0
-271209	-1.9409	-25.6781	0	0
-271402	12.1841	-25.7197	0	0
-271595	26.1733	-25.7613	0	0
-271787	36.5587	-25.8029	0	0
-271980	42.0091	-25.8444	0	0
-272173	42.8406	-25.886	0	0
-272366	40.5466	-25.9276	0	0
-272558	38.1984	-25.9692	0	0
-272751	36.2637	-26.0108	0	0
-272944	33.5766	-26.0523	0	0
-273137	28.1207	-26.0939	0	0
-273329	18.396	-26.1355	0	0
-273522	4.62815	-26.1771	0	0
-273715	-10.8408	-26.2187	0	0
-273908	-24.2454	-26.2602	0	0
-274100	-31.8908	-26.3018	0	0
-274293	-31.7599	-26.3434	0	0
-274486	-24.4728	-26.385	0	0
-274678	-13.1204	-26.4265	0	0
-274871	-2.0266	-26.4681	0	0
-275064	5.02023	-26.5097	0	0
-275257	6.26592	-26.5513	0	0
-275449	2.56307	-26.5929	0	0
-275642	-3.21572	-26.6344	0	0
-275835	-7.61505	-26.676	0	0
-276028	-8.20535	-26.7176	0	0
-276220	-4.62515	-26.7592	0	0
-276413	1.384	-26.8008	0	0
-276606	6.91005	-26.8423	0	0
-276799	9.2741	-26.8839	0	0
-276991	7.22327	-26.9255	0	0
-277184	1.36382	-26.9671	0	0
-277377	-6.3132	-27.0087	0	0
-277570	-13.5163	-27.0502	0	0
-277762	-18.7597	-27.0918	0	0
-277955	-21.9232	-27.1334	0	0
-278148	-24.002	-27.175	0	0
-278341	-26.21	-27.2165	0	0
-278533	-28.9479	-27.2581	0	0
-278726	-31.2224	-27.2997	0	0
-278919	-30.8826	-27.3413	0	0
-279112	-25.6164	-27.3829	0	0
-279304	-14.2559	-27.4244	0	0
-279497	2.26087	-27.466	0	0
-279690	20.7917	-27.5076	0	0
-279883	36.8991	-27.5492	0	0
-280075	46.4365	-27.5908	0	0
-280268	47.1622	-27.6323	0	0
-280461	39.69	-27.6739	0	0
-280653	27.3674	-27.7155	0	0
-280846	15.1194	-27.7571	0	0
-281039	7.7342	-27.7986	0	0
-281232	8.2733	-27.8402	0	0
-281424	17.1967	-27.8818	0	0
-281617	32.4616	-27.9234	0	0
-281810	50.4303	-27.965	0	0
-282003	67.1312	-28.0065	0	0
-282195	79.3501	-28.0481	0	0
-282388	85.2106	-28.0897	0	0
-282581	84.2011	-28.1313	0	0
-282774	76.8695	0	0	0
