#from:  labo8
##freq 278.221
##col_ Hz	Spectrum	Model	Line#1	Line#2
749703	58.2144	0.00152608	0.00153533	-9.24684e-06
749337	49.3632	0.00150029	0.00153679	-3.64999e-05
748970	40.2112	0.00151681	0.00153825	-2.14419e-05
748604	37.7728	0.00148402	0.00153972	-5.56904e-05
748238	41.2288	0.00149196	0.00154118	-4.92175e-05
747872	41.376	0.0014694	0.00154265	-7.32463e-05
747506	31.6864	0.00147564	0.00154412	-6.84756e-05
747139	19.1936	0.00140869	0.00154559	-0.000136902
746773	17.7984	0.00139631	0.00154706	-0.000150756
746407	29.0368	0.00134864	0.00154854	-0.0001999
746041	36.8896	0.00129339	0.00155002	-0.000256622
745675	27.6352	0.00127777	0.0015515	-0.000273727
745308	9.5424	0.00115447	0.00155298	-0.000398513
744942	3.7504	0.00116306	0.00155446	-0.000391399
744576	16.6912	0.00127594	0.00155595	-0.000280011
744210	31.392	0.00125894	0.00155744	-0.000298496
743843	29.1392	0.00111687	0.00155893	-0.000442061
743477	12.1856	0.00119831	0.00156042	-0.00036211
743111	-2.1568	0.00111806	0.00156192	-0.000443857
742745	-4.0576	0.00133458	0.00156341	-0.000228828
742379	1.408	0.00133399	0.00156491	-0.000230919
742012	6.8032	0.00140506	0.00156641	-0.000161351
741646	11.6544	0.00140015	0.00156792	-0.000167769
741280	16.8064	0.00142297	0.00156942	-0.000146452
740914	18.7392	0.00148799	0.00157093	-8.29398e-05
740548	15.9488	0.00149036	0.00157244	-8.20769e-05
740181	14.8608	0.00150969	0.00157395	-6.4267e-05
739815	20.8768	0.00150852	0.00157547	-6.69437e-05
739449	26.9312	0.00151559	0.00157698	-6.13897e-05
739083	20.5184	0.00149489	0.0015785	-8.36118e-05
738717	2.9056	0.00148289	0.00158002	-9.71353e-05
738350	-8.192	0.00146504	0.00158155	-0.000116512
737984	0.672	0.00150105	0.00158307	-8.20183e-05
737618	22.4896	0.00147964	0.0015846	-0.000104957
737252	39.8976	0.00154345	0.00158613	-4.26819e-05
736885	45.5552	0.0016291	0.00158766	4.14346e-05
736519	44.7872	0.00193335	0.0015892	0.000344153
736153	41.7024	0.00290814	0.00159073	0.00131741
735787	34.1952	0.0055241	0.00159227	0.00393183
735421	24.256	0.0124543	0.00159381	0.0108605
735054	22.1184	0.029617	0.00159536	0.0280217
734688	32.6912	0.0699757	0.0015969	0.0683788
734322	44.5952	0.161146	0.00159845	0.159548
733956	41.8432	0.35375	0.0016	0.35215
733590	24.8064	0.743914	0.00160155	0.742312
733223	10.8608	1.48859	0.00160311	1.48698
732857	14.048	2.83206	0.00160466	2.83045
732491	27.5904	5.14068	0.00160622	5.13907
732125	35.4176	8.85647	0.00160778	8.85487
731759	31.392	14.5347	0.00160935	14.5331
731392	23.8016	22.669	0.00161091	22.6674
731026	24.0256	33.6035	0.00161248	33.6019
730660	35.0144	47.3775	0.00161405	47.3759
730294	50.784	63.4545	0.00161562	63.4529
729927	63.7824	80.768	0.0016172	80.7664
729561	72.5824	97.6639	0.00161877	97.6623
729195	83.3024	112.186	0.00162035	112.184
728829	101.523	122.355	0.00162194	122.354
728463	121.414	126.768	0.00162352	126.766
728096	127.258	124.65	0.00162511	124.648
727730	110.093	116.379	0.0016267	116.377
727364	80.3968	103.145	0.00162829	103.144
726998	57.856	86.7489	0.00162988	86.7473
726632	49.5744	69.2436	0.00163148	69.242
726265	45.8688	52.4521	0.00163307	52.4504
725899	38.3488	37.6962	0.00163468	37.6946
725533	31.3344	25.6981	0.00163628	25.6964
725167	30.5408	16.6318	0.00163788	16.6302
724800	30.368	10.1969	0.00163949	10.1953
724434	23.3152	5.9418	0.0016411	5.94016
724068	15.5648	3.28063	0.00164271	3.27898
723702	18.7392	1.7174	0.00164433	1.71576
723336	27.5456	0.854945	0.00164595	0.853299
722969	22.4448	0.402496	0.00164757	0.400849
722603	1.6896	0.181161	0.00164919	0.179512
722237	-12.9088	0.077632	0.00165081	0.0759812
721871	-3.136	0.0320899	0.00165244	0.0304374
721505	15.904	0.0131945	0.00165407	0.0115404
721138	14.3232	0.00572355	0.0016557	0.00406785
720772	-8.576	0.00305799	0.00165733	0.00140065
720406	-21.5232	0.00202149	0.00165897	0.000362524
720040	-6.5088	0.00172453	0.00166061	6.39263e-05
719674	14.6624	0.00164972	0.00166225	-1.25295e-05
719307	11.6288	0.00161395	0.00166389	-4.99417e-05
718941	-11.4304	0.00162613	0.00166554	-3.94134e-05
718575	-23.52	0.00158417	0.00166719	-8.30164e-05
718209	-10.24	0.00162963	0.00166884	-3.92108e-05
717842	11.1936	0.00164176	0.00167049	-2.87295e-05
717476	21.1392	0.00159725	0.00167215	-7.48932e-05
717110	21.248	0.00160691	0.00167381	-6.68983e-05
716744	21.4144	0.00161428	0.00167547	-6.11893e-05
716378	18.8032	0.00159664	0.00167713	-8.04858e-05
716011	8.2624	0.00159912	0.0016788	-7.9677e-05
715645	-0.288	0.00165066	0.00168046	-2.98078e-05
715279	6.56	0.00159931	0.00168214	-8.28238e-05
714913	24.0576	0.00156272	0.00168381	-0.00012109
714547	31.8848	0.00156373	0.00168548	-0.000121751
714180	21.6832	0.00152748	0.00168716	-0.000159684
713814	7.6672	0.00155163	0.00168884	-0.000137217
713448	4.3648	0.00152487	0.00169053	-0.000165656
713082	6.9184	0.00155132	0.00169221	-0.000140894
712716	3.7824	0.00154454	0.0016939	-0.000149357
712349	-1.8048	0.0015592	0.00169559	-0.000136396
711983	3.392	0.00160266	0.00169728	-9.46249e-05
711617	19.9104	0.00154511	0.00169898	-0.000153866
711251	31.296	0.00153242	0.00170068	-0.000168263
710884	24.8768	0.0015426	0.00170238	-0.000159781
710518	7.616	0.00154912	0.00170408	-0.000154968
710152	-4.2688	0.00154249	0.00170579	-0.000163299
709786	-3.8272	0.0015193	0.0017075	-0.000188201
709420	2.7072	0.00149044	0.00170921	-0.000218765
709053	6.0736	0.00149966	0.00171092	-0.000211265
708687	3.2	0.00152256	0.00171264	-0.000190077
708321	-0.128	0.0015165	0.00171436	-0.000197863
707955	6.112	0.00155375	0.00171608	-0.000162328
707589	24.7744	0.001527	0.0017178	-0.000190808
707222	43.3728	0.00161169	0.00171953	-0.000107845
706856	44.4352	0.00173203	0.00172126	1.07654e-05
706490	27.9424	0.00217162	0.00172299	0.000448626
706124	14.6944	0.00333537	0.00172473	0.00161064
705758	21.3632	0.00654627	0.00172646	0.0048198
705391	38.048	0.0148572	0.0017282	0.013129
705025	41.5104	0.0354857	0.00172995	0.0337557
704659	27.936	0.0837586	0.00173169	0.0820269
704293	14.9568	0.192374	0.00173344	0.190641
703926	12.64	0.421042	0.00173519	0.419307
703560	11.5008	0.882665	0.00173694	0.880928
703194	5.856	1.76101	0.0017387	1.75927
702828	9.3184	3.34139	0.00174046	3.33965
702462	31.232	6.04958	0.00174222	6.04784
702095	52.3648	10.3977	0.00174398	10.3959
701729	48.064	17.0266	0.00174575	17.0249
701363	29.3312	26.5007	0.00174752	26.4989
700997	34.0608	39.2086	0.00174929	39.2069
700631	73.0816	55.1819	0.00175106	55.1802
700264	111.584	73.7868	0.00175284	73.785
699898	118.253	93.7781	0.00175462	93.7764
699532	109.133	113.24	0.0017564	113.238
699166	118.451	129.915	0.00175819	129.913
698800	141.946	141.533	0.00175998	141.531
698433	142.528	146.49	0.00176177	146.489
698067	110.605	143.917	0.00176356	143.916
697701	83.584	134.269	0.00176536	134.267
697335	91.36	118.929	0.00176716	118.927
696968	110.515	99.9771	0.00176896	99.9753
696602	97.9136	79.7762	0.00177076	79.7745
696236	53.1008	60.4196	0.00177257	60.4179
695870	17.1584	43.4208	0.00177438	43.419
695504	13.664	29.6042	0.00177619	29.6024
695137	21.4016	19.1649	0.00177801	19.1632
694771	12.7744	11.7549	0.00177983	11.7531
694405	-6.5664	6.85363	0.00178165	6.85185
694039	-13.0624	3.78691	0.00178347	3.78513
693673	-2.4384	1.98428	0.0017853	1.98249
693306	9.0688	0.988847	0.00178713	0.98706
692940	12.4864	0.466008	0.00178896	0.464219
692574	14.0352	0.210006	0.0017908	0.208215
692208	16.9472	0.0900202	0.00179263	0.0882276
691842	14.2848	0.0372232	0.00179447	0.0354288
691475	4.2816	0.01534	0.00179632	0.0135437
691109	-2.5152	0.00665435	0.00179817	0.00485618
690743	1.5872	0.00342187	0.00180001	0.00162185
690377	11.1872	0.00230106	0.00180187	0.000499189
690010	19.5072	0.00187227	0.00180372	6.85475e-05
689644	28.992	0.00179632	0.00180558	-9.26158e-06
689278	39.872	0.0017292	0.00180744	-7.82432e-05
688912	35.8784	0.00174406	0.0018093	-6.5247e-05
688546	7.5136	0.00170472	0.00181117	-0.000106453
688179	-26.432	0.0016873	0.00181304	-0.00012574
687813	-33.3248	0.00173298	0.00181491	-8.19298e-05
687447	-6.6304	0.00169231	0.00181679	-0.000124476
687081	24.5632	0.00169862	0.00181867	-0.000120043
686715	33.0112	0.001687	0.00182055	-0.000133544
686348	25.056	0.00168651	0.00182243	-0.000135919
685982	23.8272	0.00167288	0.00182432	-0.000151435
685616	32.7808	0.00167191	0.00182621	-0.000154302
685250	34.2656	0.0016745	0.0018281	-0.000153604
684884	20.7232	0.00169757	0.00183	-0.000132425
684517	8.7872	0.0017287	0.0018319	-0.000103198
684151	15.4048	0.00173321	0.0018338	-0.000100588
683785	34.8096	0.00174095	0.0018357	-9.47495e-05
683419	47.8144	0.00173693	0.00183761	-0.00010068
683052	46.7072	0.00171968	0.00183952	-0.000119836
682686	39.9616	0.00171202	0.00184143	-0.000129409
682320	37.2544	0.00173994	0.00184335	-0.000103411
681954	39.1296	0.0017024	0.00184527	-0.000142866
681588	41.8304	0.00164033	0.00184719	-0.00020686
681221	43.3088	0.00164215	0.00184912	-0.000206966
680855	41.6256	0.00170508	0.00185105	-0.00014597
680489	33.4912	0.00180526	0.00185298	-4.77175e-05
680123	18.8288	0.00178757	0.00185491	-6.73439e-05
679757	4.448	0.00172598	0.00185685	-0.000130874
679390	-0.9152	0.00168924	0.00185879	-0.000169546
679024	5.1968	0.00168796	0.00186073	-0.000172776
678658	17.088	0.00167482	0.00186268	-0.000187866
678292	26.5152	0.00173728	0.00186463	-0.000127351
677925	29.5936	0.00168867	0.00186658	-0.000177911
677559	29.0368	0.00171269	0.00186854	-0.000155847
677193	29.4848	0.00178516	0.0018705	-8.53392e-05
676827	30.4512	0.00194398	0.00187246	7.15194e-05
676461	26.0672	0.00247945	0.00187443	0.000605022
676094	15.1488	0.00391048	0.00187639	0.00203409
675728	8.7808	0.00789155	0.00187837	0.00601318
675362	20.3456	0.0183306	0.00188034	0.0164503
674996	46.624	0.0439616	0.00188232	0.0420793
674630	67.4176	0.103784	0.0018843	0.1019
674263	69.6	0.23792	0.00188628	0.236033
673897	64.0512	0.519545	0.00188827	0.517657
673531	68.1216	1.08681	0.00189026	1.08492
673165	80.8832	2.16382	0.00189225	2.16193
672799	81.8944	4.0981	0.00189425	4.09621
672432	65.3632	7.40739	0.00189625	7.4055
672066	53.9776	12.7134	0.00189825	12.7115
671700	69.4976	20.7934	0.00190026	20.7915
671334	100.576	32.3302	0.00190227	32.3282
670967	115.706	47.7935	0.00190428	47.7916
670601	105.363	67.2184	0.0019063	67.2165
670235	94.6368	89.8343	0.00190831	89.8324
669869	109.299	114.131	0.00191034	114.129
669503	142.573	137.784	0.00191236	137.782
669136	165.382	158.059	0.00191439	158.057
668770	161.664	172.202	0.00191642	172.2
668404	142.042	178.267	0.00191846	178.265
668038	125.446	175.191	0.00192049	175.189
667672	118.63	163.52	0.00192254	163.519
667305	115.296	144.923	0.00192458	144.921
666939	106.739	121.916	0.00192663	121.914
666573	88.7936	97.3647	0.00192868	97.3627
666207	64.2048	73.8125	0.00193073	73.8106
665841	42.6048	53.104	0.00193279	53.1021
665474	34.6112	36.251	0.00193485	36.249
665108	41.024	23.4995	0.00193692	23.4975
664742	49.9904	14.4347	0.00193898	14.4328
664376	48.3712	8.42943	0.00194105	8.42749
664009	35.104	4.66539	0.00194313	4.66344
663643	20.1856	2.44899	0.00194521	2.44704
663277	12.7168	1.22258	0.00194729	1.22064
662911	13.6128	0.577166	0.00194937	0.575217
662545	18.5344	0.260381	0.00195146	0.258429
662178	23.1936	0.111694	0.00195355	0.10974
661812	24.9792	0.0460795	0.00195564	0.0441238
661446	23.7184	0.0187293	0.00195774	0.0167715
661080	22.2976	0.00774489	0.00195984	0.00578505
660714	23.9808	0.0035008	0.00196195	0.00153885
660347	28.2432	0.00255208	0.00196406	0.000588029
659981	31.9424	0.00212547	0.00196617	0.000159301
659615	34.3744	0.0015812	0.00196828	-0.000387079
659249	36.864	0.0129562	0.0019704	0.0109858
658883	36.0832	0.013164	0.00197252	0.0111915
658516	24.9984	0.0128072	0.00197465	0.0108326
658150	3.4304	0.0116147	0.00197677	0.00963789
657784	-13.8368	0.00990498	0.00197891	0.00792608
657418	-11.1872	0.00859829	0.00198104	0.00661725
657051	9.2032	0.0071384	0.00198318	0.00515522
656685	29.7152	0.00566881	0.00198532	0.00368349
656319	38.592	0.00448169	0.00198747	0.00249422
655953	40.6976	0.0036461	0.00198962	0.00165649
655587	44.7808	0.00291398	0.00199177	0.000922209
655220	48.7808	0.00250996	0.00199392	0.000516037
654854	45.3184	0.00221515	0.00199608	0.00021907
654488	35.1744	0.00207334	0.00199825	7.50927e-05
654122	25.408	0.0019305	0.00200041	-6.99179e-05
653756	15.9104	0.00187051	0.00200258	-0.000132077
653389	-0.5504	0.0018867	0.00200476	-0.000118056
653023	-22.432	0.00188404	0.00200693	-0.000122894
652657	-33.0944	0.0019007	0.00200912	-0.000108412
652291	-18.1184	0.00191961	0.0020113	-9.169e-05
651925	16.0384	0.00199894	0.00201349	-1.45427e-05
651558	48.6592	0.00199109	0.00201568	-2.45839e-05
651192	67.6288	0.0020102	0.00201787	-7.67031e-06
650826	77.9264	0.0020166	0.00202007	-3.47298e-06
650460	86.8352	0.00202628	0.00202227	4.00038e-06
650093	89.5232	0.00202724	0.00202448	2.76105e-06
649727	75.7248	0.00204216	0.00202669	1.54721e-05
649361	46.9184	0.00211101	0.0020289	8.21064e-05
648995	19.872	0.00202438	0.00203112	-6.73916e-06
648629	11.392	0.00204044	0.00203334	7.10343e-06
648262	21.4272	0.00208146	0.00203556	4.58966e-05
647896	33.312	0.00202819	0.00203779	-9.60001e-06
647530	31.3024	0.00201266	0.00204002	-2.73617e-05
647164	16.9344	0.00200996	0.00204226	-3.22965e-05
646798	7.2256	0.002232	0.0020445	0.0001875
646431	15.9104	0.00288016	0.00204674	0.000833422
646065	38.0608	0.00465653	0.00204898	0.00260754
645699	55.9488	0.00956186	0.00205123	0.00751062
645333	58.5216	0.0223002	0.00205349	0.0202467
644967	50.7392	0.053637	0.00205574	0.0515813
644600	42.7072	0.126492	0.002058	0.124434
644234	36.448	0.289349	0.00206027	0.287289
643868	28.6016	0.630447	0.00206254	0.628385
643502	20.4928	1.31571	0.00206481	1.31364
643135	18.9184	2.61377	0.00206709	2.6117
642769	25.024	4.9403	0.00206936	4.93823
642403	30.1184	8.91308	0.00207165	8.91101
642037	27.1168	15.2721	0.00207394	15.27
641671	21.1136	24.9418	0.00207623	24.9397
641304	24.0512	38.7309	0.00207852	38.7289
640938	41.4848	57.1944	0.00208082	57.1923
640572	69.0944	80.3685	0.00208312	80.3664
640206	99.6992	107.334	0.00208543	107.332
639840	128.026	136.295	0.00208774	136.293
639473	149.626	164.492	0.00209005	164.489
639107	161.523	188.673	0.00209237	188.671
638741	165.664	205.57	0.00209469	205.568
638375	166.694	212.866	0.00209702	212.864
638009	164.064	209.286	0.00209934	209.284
637642	150.912	195.467	0.00210168	195.465
637276	124.563	173.376	0.00210402	173.374
636910	94.3488	145.996	0.00210636	145.994
636544	73.7728	116.731	0.0021087	116.729
636177	66.7712	88.6108	0.00211105	88.6087
635811	65.9584	63.8447	0.0021134	63.8426
635445	63.1232	43.6542	0.00211576	43.6521
635079	56.0128	28.3483	0.00211812	28.3461
634713	45.4976	17.446	0.00212048	17.4439
634346	32.0768	10.2084	0.00212285	10.2063
633980	17.8304	5.66183	0.00212522	5.6597
633614	7.0336	2.97857	0.0021276	2.97644
633248	1.7792	1.49033	0.00212998	1.4882
632882	-0.2368	0.705133	0.00213237	0.703
632515	-1.2672	0.318871	0.00213475	0.316736
632149	-0.5696	0.137167	0.00213715	0.13503
631783	1.3056	0.0567953	0.00213954	0.0546557
631417	0.2944	0.0233358	0.00214194	0.0211938
631050	-4.2048	0.010074	0.00214435	0.00792967
630684	-4.4992	0.00516048	0.00214676	0.00301372
630318	5.088	0.00346393	0.00214917	0.00131476
629952	14.9376	0.00292418	0.00215159	0.000772593
629586	7.936	0.00275349	0.00215401	0.000599486
629219	-16.7936	0.00266534	0.00215643	0.000508907
628853	-37.3568	0.00261791	0.00215886	0.000459048
628487	-33.1072	0.00251748	0.00216129	0.000356182
628121	-8.7104	0.00245305	0.00216373	0.000289322
627755	14.1184	0.0023077	0.00216617	0.000141527
627388	24.032	0.00222998	0.00216862	6.13617e-05
627022	27.84	0.00214945	0.00217107	-2.16138e-05
626656	32.992	0.00212086	0.00217352	-5.26625e-05
626290	35.0336	0.00205486	0.00217598	-0.000121118
625924	27.2896	0.00200537	0.00217844	-0.000173072
625557	14.1376	0.00201637	0.00218091	-0.000164539
625191	5.792	0.00200058	0.00218338	-0.000182801
624825	5.9968	0.00195917	0.00218585	-0.000226679
624459	12.096	0.0019519	0.00218833	-0.000236429
624092	22.56	0.00194952	0.00219081	-0.000241292
623726	34.848	0.0019409	0.0021933	-0.000252398
623360	38.8544	0.00195931	0.00219579	-0.000236483
622994	25.0176	0.00194584	0.00219829	-0.000252443
622628	0.6272	0.00198351	0.00220079	-0.000217276
622261	-11.8208	0.0020096	0.00220329	-0.000193688
621895	-0.9024	0.00203871	0.0022058	-0.000167087
621529	18.3296	0.00204747	0.00220831	-0.000160844
621163	23.36	0.00208636	0.00221083	-0.000124473
620797	13.1904	0.00211072	0.00221335	-0.000102629
620430	7.1232	0.00211068	0.00221588	-0.000105201
620064	16.5568	0.0021468	0.00221841	-7.16095e-05
619698	30.1248	0.00216682	0.00222094	-5.41229e-05
619332	30.2912	0.00213353	0.00222348	-8.9947e-05
618966	15.1808	0.00213625	0.00222602	-8.97735e-05
618599	-2.5984	0.00212136	0.00222857	-0.000107216
618233	-11.5328	0.00210758	0.00223112	-0.000123548
617867	-7.9552	0.00208108	0.00223368	-0.000152598
617501	7.3792	0.00205294	0.00223624	-0.000183302
617134	29.056	0.00215153	0.00223881	-8.72728e-05
616768	43.9168	0.00234338	0.00224138	0.000102004
616402	39.168	0.00353743	0.00224395	0.00129348
616036	17.9776	0.00579057	0.00224653	0.00354404
615670	0.4544	0.0117058	0.00224911	0.00945665
615303	3.328	0.0267981	0.0022517	0.0245464
614937	23.1424	0.0641781	0.00225429	0.0619238
614571	43.7504	0.15077	0.00225689	0.148513
614205	55.712	0.343643	0.00225949	0.341383
613839	60.6912	0.746099	0.00226209	0.743837
613472	59.5584	1.55244	0.0022647	1.55018
613106	47.616	3.07593	0.00226732	3.07367
612740	26.5408	5.80123	0.00226993	5.79896
612374	12.7872	10.4473	0.00227256	10.445
612008	24.2432	17.8755	0.00227519	17.8732
611641	59.1296	29.1636	0.00227782	29.1613
611275	95.6544	45.2558	0.00228045	45.2536
610909	115.763	66.8082	0.0022831	66.8059
610543	123.776	93.8771	0.00228574	93.8748
610176	137.152	125.413	0.00228839	125.411
609810	162.272	159.347	0.00229105	159.345
609444	186.17	192.477	0.00229371	192.475
609078	193.382	221.016	0.00229637	221.014
608712	184.326	241.131	0.00229904	241.128
608345	171.994	250.072	0.00230172	250.069
607979	163.462	246.288	0.00230439	246.286
607613	152.307	230.459	0.00230708	230.457
607247	130.95	204.827	0.00230977	204.825
606881	104.224	172.85	0.00231246	172.848
606514	85.152	138.512	0.00231516	138.51
606148	79.3088	105.389	0.00231786	105.387
605782	78.8736	76.1144	0.00232056	76.1121
605416	72.16	52.1699	0.00232328	52.1676
605050	54.8992	33.9603	0.00232599	33.958
604683	31.8912	20.9507	0.00232871	20.9484
604317	13.1008	12.2887	0.00233144	12.2864
603951	9.0624	6.8317	0.00233417	6.82936
603585	23.04	3.60241	0.00233691	3.60007
603218	42.4512	1.80634	0.00233965	1.804
602852	44.5248	0.856369	0.00234239	0.854027
602486	20.2496	0.388007	0.00234514	0.385662
602120	-9.9968	0.16704	0.0023479	0.164692
601754	-15.6608	0.0691416	0.00235066	0.066791
601387	7.1424	0.0282716	0.00235342	0.0259182
601021	29.3952	0.0119986	0.00235619	0.00964236
600655	25.824	0.00596709	0.00235896	0.00360813
600289	6.8992	0.00385085	0.00236174	0.00148911
599923	1.7408	0.00319392	0.00236453	0.000829391
599556	16.4928	0.00291818	0.00236732	0.00055086
599190	27.5776	0.00286017	0.00237011	0.000490056
598824	17.9264	0.00277405	0.00237291	0.000401137
598458	1.6768	0.00269741	0.00237571	0.000321699
598092	2.048	0.00262571	0.00237852	0.000247192
597725	17.568	0.00252491	0.00238133	0.000143572
597359	26.9568	0.00242621	0.00238415	4.20588e-05
596993	22.2528	0.00240726	0.00238698	2.02868e-05
596627	18.5024	0.00230735	0.00238981	-8.24521e-05
596260	27.2064	0.00224217	0.00239264	-0.000150472
595894	37.0688	0.00223793	0.00239548	-0.000157549
595528	30.4576	0.00218107	0.00239832	-0.000217256
595162	9.1072	0.00235483	0.00240117	-4.63458e-05
594796	-9.216	0.00227747	0.00240403	-0.00012656
594429	-13.8944	0.00230275	0.00240689	-0.00010414
594063	-8.8512	0.00231886	0.00240975	-9.08884e-05
593697	1.1136	0.00228907	0.00241262	-0.000123548
593331	17.6192	0.00227262	0.00241549	-0.000142878
592965	38.8032	0.00226858	0.00241837	-0.000149794
592598	53.4656	0.00229262	0.00242126	-0.000128641
592232	53.3952	0.00228147	0.00242415	-0.000142674
591866	45.056	0.00228491	0.00242704	-0.000142132
591500	40.5632	0.00231187	0.00242994	-0.000118073
591134	42.5728	0.00231342	0.00243285	-0.000119434
590767	43.2704	0.00236128	0.00243576	-7.4483e-05
590401	37.6448	0.00237884	0.00243868	-5.98352e-05
590035	30.752	0.00240513	0.0024416	-3.6468e-05
589669	29.1904	0.00242913	0.00244452	-1.53927e-05
589302	33.0816	0.0023979	0.00244746	-4.95547e-05
588936	38.1504	0.00242839	0.00245039	-2.20011e-05
588570	39.9424	0.00238706	0.00245333	-6.62763e-05
588204	34.7584	0.00238368	0.00245628	-7.26056e-05
587838	22.4896	0.00234408	0.00245924	-0.000115155
587471	11.2832	0.00234324	0.00246219	-0.000118952
587105	12.5248	0.00242959	0.00246516	-3.55715e-05
586739	26.112	0.00273635	0.00246813	0.000268221
586373	36.736	0.00369381	0.0024711	0.00122271
586007	32.096	0.00639071	0.00247408	0.00391663
585640	20.1408	0.0135458	0.00247707	0.0110687
585274	18.5664	0.0321119	0.00248006	0.0296318
584908	29.44	0.0772132	0.00248305	0.0747301
584542	36.4864	0.181601	0.00248605	0.179115
584175	30.1056	0.413204	0.00248906	0.410715
583809	22.1312	0.8957	0.00249207	0.893208
583443	26.9824	1.86084	0.00249509	1.85835
583077	37.824	3.682	0.00249811	3.6795
582711	35.296	6.93775	0.00250114	6.93525
582344	17.6128	12.4861	0.00250418	12.4836
581978	7.7952	21.3583	0.00250722	21.3558
581612	27.1296	34.848	0.00251026	34.8455
581246	71.6096	54.096	0.00251331	54.0935
580880	119.814	79.9081	0.00251637	79.9056
580513	156.07	112.381	0.00251943	112.379
580147	178.464	150.293	0.0025225	150.291
579781	190.963	191.198	0.00252557	191.195
579415	199.091	231.273	0.00252865	231.27
579049	210.72	265.966	0.00253173	265.964
578682	229.338	290.639	0.00253482	290.637
578316	244.179	301.921	0.00253792	301.918
577950	237.184	297.861	0.00254102	297.858
577584	205.018	279.199	0.00254413	279.196
577217	166.656	248.571	0.00254724	248.568
576851	142.176	210.116	0.00255036	210.114
576485	129.747	168.65	0.00255348	168.647
576119	112.813	128.518	0.00255661	128.516
575753	86.4256	92.9538	0.00255975	92.9512
575386	63.9232	63.7982	0.00256289	63.7957
575020	54.8736	41.5802	0.00256604	41.5777
574654	48.384	25.6793	0.00256919	25.6767
574288	27.4304	15.0764	0.00257235	15.0738
573922	-5.6192	8.38767	0.00257552	8.38509
573555	-28.608	4.42539	0.00257869	4.42281
573189	-25.4464	2.21978	0.00258186	2.21719
572823	-4.416	1.05237	0.00258505	1.04979
572457	12.576	0.476687	0.00258823	0.474099
572091	13.6512	0.204943	0.00259143	0.202352
571724	4.8832	0.0845899	0.00259463	0.0819953
571358	-1.2288	0.034329	0.00259783	0.0317312
570992	0.544	0.0143199	0.00260105	0.0117188
570626	6.56	0.00693539	0.00260426	0.00433112
570259	10.8928	0.00431487	0.00260749	0.00170738
569893	11.1616	0.00344314	0.00261072	0.000832422
569527	9.5296	0.0031385	0.00261395	0.000524549
569161	10.4128	0.00304736	0.0026172	0.00043017
568795	16.704	0.00293365	0.00262044	0.000313202
568428	26.4128	0.00293588	0.0026237	0.000312179
568062	33.3824	0.00281096	0.00262696	0.000184006
567696	32.864	0.00274585	0.00263022	0.000115632
567330	26.7392	0.00263434	0.0026335	8.45005e-07
566964	21.8688	0.00260307	0.00263677	-3.36999e-05
566597	22.2208	0.00261283	0.00264006	-2.7224e-05
566231	23.712	0.00254149	0.00264335	-0.000101859
565865	19.1744	0.00249665	0.00264665	-0.000149996
565499	8.6016	0.00248106	0.00264995	-0.000168891
565133	1.8176	0.00248381	0.00265326	-0.000169447
564766	7.6288	0.00246255	0.00265657	-0.000194026
564400	22.8096	0.0024346	0.00265989	-0.000225294
564034	33.1968	0.00249776	0.00266322	-0.000165463
563668	29.44	0.00247383	0.00266656	-0.000192723
563301	18.5728	0.00255131	0.0026699	-0.000118583
562935	15.6736	0.00252849	0.00267324	-0.000144754
562569	25.6768	0.00263516	0.0026766	-4.14372e-05
562203	38.0736	0.00258659	0.00267995	-9.33647e-05
561837	40.832	0.00266623	0.00268332	-1.7088e-05
561470	34.0352	0.00260625	0.00268669	-8.04399e-05
561104	26.1184	0.0026314	0.00269007	-5.86731e-05
560738	20.7168	0.00261922	0.00269345	-7.42327e-05
560372	13.0304	0.00257977	0.00269685	-0.000117079
560006	1.3632	0.0026034	0.00270024	-9.6844e-05
559639	-7.5584	0.00256977	0.00270365	-0.000133876
559273	-7.552	0.00254959	0.00270706	-0.000157469
558907	-2.4576	0.00253379	0.00271047	-0.000176681
558541	-0.6016	0.00252829	0.0027139	-0.000185607
558175	-2.2144	0.00250964	0.00271733	-0.000207682
557808	0.5824	0.00254073	0.00272076	-0.000180035
557442	10.2144	0.00259099	0.00272421	-0.000133218
557076	17.8304	0.00270875	0.00272765	-1.89087e-05
556710	15.6416	0.00312712	0.00273111	0.00039601
556343	10.0736	0.00427696	0.00273457	0.00154239
555977	15.1488	0.00752247	0.00273804	0.00478443
555611	33.9712	0.0162075	0.00274152	0.013466
555245	53.664	0.038562	0.002745	0.035817
554879	60.3008	0.0928954	0.00274849	0.0901469
554512	53.2736	0.218166	0.00275198	0.215414
554146	41.5488	0.496068	0.00275549	0.493312
553780	31.2576	1.07455	0.00275899	1.07179
553414	23.5072	2.23111	0.00276251	2.22834
553048	21.2352	4.41334	0.00276603	4.41058
552681	29.2224	8.31539	0.00276956	8.31262
552315	45.728	14.9669	0.0027731	14.9641
551949	61.6448	25.6076	0.00277664	25.6049
551583	72.9728	41.7954	0.00278019	41.7926
551217	88.608	64.905	0.00278375	64.9023
550850	118.701	95.9128	0.00278731	95.91
550484	157.901	134.94	0.00279088	134.937
550118	189.28	180.517	0.00279445	180.514
549752	205.933	229.698	0.00279804	229.695
549385	219.667	277.872	0.00280163	277.869
549019	242.451	319.545	0.00280523	319.543
548653	265.83	349.122	0.00280883	349.12
548287	268.352	362.542	0.00281244	362.539
547921	242.33	357.467	0.00281606	357.464
547554	203.418	334.817	0.00281968	334.814
547188	170.483	297.8	0.00282332	297.797
546822	143.923	251.431	0.00282696	251.429
546456	111.392	201.527	0.0028306	201.524
546090	70.688	153.322	0.00283426	153.319
545723	37.4784	110.687	0.00283792	110.684
545357	27.7696	75.811	0.00284158	75.8082
544991	39.0464	49.2954	0.00284526	49.2926
544625	52.7744	30.3662	0.00284894	30.3634
544259	53.1136	17.7792	0.00285263	17.7764
543892	39.6928	9.86189	0.00285632	9.85904
543526	23.7184	5.18672	0.00286003	5.18386
543160	15.0848	2.5928	0.00286374	2.58993
542794	14.3552	1.2248	0.00286746	1.22193
542427	14.9632	0.552561	0.00287118	0.549689
542061	12	0.236583	0.00287491	0.233708
541695	7.8912	0.0971381	0.00287865	0.0942594
541329	8.3776	0.0391168	0.0028824	0.0362344
540963	13.6	0.0161074	0.00288615	0.0132213
540596	16.6848	0.00762983	0.00288991	0.00473991
540230	12.96	0.00463915	0.00289368	0.00174547
539864	7.1424	0.00368227	0.00289746	0.00078481
539498	6.0992	0.00332521	0.00290124	0.000423968
539132	7.5072	0.00323558	0.00290503	0.000330545
538765	3.2128	0.00313146	0.00290883	0.000222631
538399	-6.3168	0.00309633	0.00291264	0.000183697
538033	-7.968	0.00301235	0.00291645	9.58953e-05
537667	7.3728	0.00297429	0.00292027	5.4017e-05
537300	29.4144	0.0029198	0.0029241	-4.3028e-06
536934	39.3792	0.00286355	0.00292794	-6.43852e-05
536568	33.8752	0.00284487	0.00293178	-8.69075e-05
536202	27.6032	0.00282904	0.00293563	-0.000106595
535836	31.52	0.00281984	0.00293949	-0.000119645
535469	38.5728	0.00279751	0.00294336	-0.000145843
535103	36.9152	0.00279338	0.00294723	-0.000153849
534737	28.5056	0.00275221	0.00295111	-0.000198901
534371	24.3392	0.00278376	0.002955	-0.000171242
534005	25.4976	0.00278321	0.0029589	-0.000175687
533638	21.152	0.00275618	0.0029628	-0.000206622
533272	7.0656	0.00270827	0.00296671	-0.000258439
532906	-5.4464	0.00265062	0.00297063	-0.000320017
532540	-4.5056	0.00258667	0.00297456	-0.000387896
532174	6.0544	0.00257823	0.0029785	-0.000400265
531807	13.3248	0.00248518	0.00298244	-0.000497257
531441	13.7408	0.00318964	0.00298639	0.000203251
531075	15.904	0.00316159	0.00299035	0.000171238
530709	25.8368	0.00327431	0.00299432	0.000279989
530342	38.9184	0.0031305	0.00299829	0.000132207
529976	46.6048	0.00306214	0.00300228	5.98655e-05
529610	46.3616	0.00299091	0.00300627	-1.53559e-05
529244	41.1712	0.00295102	0.00301027	-5.92482e-05
528878	34.5984	0.0028846	0.00301427	-0.00012967
528511	29.312	0.00281204	0.00301829	-0.000206244
528145	26.4832	0.00284433	0.00302231	-0.000177981
527779	22.5792	0.00280479	0.00302634	-0.000221553
527413	12.1344	0.00286894	0.00303038	-0.000161435
527047	-0.9088	0.0030387	0.00303443	4.27806e-06
526680	-1.2032	0.00349349	0.00303848	0.000455013
526314	20.7296	0.00492345	0.00304254	0.00188091
525948	51.392	0.0088837	0.00304662	0.00583708
525582	64.4608	0.0194705	0.00305069	0.0164198
525216	49.8368	0.0465267	0.00305478	0.0434719
524849	23.5328	0.112043	0.00305888	0.108985
524483	6.5408	0.262604	0.00306298	0.259541
524117	3.8784	0.595665	0.0030671	0.592598
523751	10.6304	1.28684	0.00307122	1.28377
523384	27.0592	2.66458	0.00307534	2.6615
523018	53.8432	5.25619	0.00307948	5.25311
522652	78.2144	9.87555	0.00308363	9.87247
522286	82.3488	17.7236	0.00308778	17.7205
521920	69.088	30.2345	0.00309194	30.2314
521553	65.1648	49.1959	0.00309612	49.1928
521187	90.176	76.1539	0.00310029	76.1508
520821	133.126	112.164	0.00310448	112.161
520455	170.189	157.256	0.00310868	157.253
520089	196.045	209.616	0.00311288	209.613
519722	222.208	265.722	0.0031171	265.719
519356	249.222	320.198	0.00312132	320.195
518990	260.941	366.728	0.00312555	366.725
518624	251.296	398.989	0.00312979	398.986
518258	238.541	412.527	0.00313404	412.524
517891	239.181	404.927	0.00313829	404.924
517525	240.058	377.517	0.00314256	377.514
517159	215.13	334.181	0.00314683	334.178
516793	165.76	280.773	0.00315111	280.77
516426	124.109	223.917	0.00315541	223.914
516060	111.11	169.487	0.00315971	169.484
515694	108.467	121.717	0.00316401	121.714
515328	85.3184	82.9213	0.00316833	82.9182
514962	41.9136	53.6269	0.00317266	53.6237
514595	9.472	32.8511	0.00317699	32.8479
514229	8.384	19.1271	0.00318134	19.1239
513863	23.2704	10.5491	0.00318569	10.5459
513497	25.3504	5.51626	0.00319005	5.51307
513131	8.5952	2.74157	0.00319442	2.73838
512764	-6.8096	1.28747	0.00319881	1.28428
512398	-2.5152	0.577475	0.00320319	0.574272
512032	17.0752	0.245825	0.00320759	0.242617
511666	31.9744	0.100316	0.003212	0.0971041
511300	27.8464	0.0401784	0.00321642	0.036962
510933	8.3968	0.0164634	0.00322084	0.0132425
510567	-11.1104	0.00769437	0.00322528	0.0044691
510201	-15.552	0.00484654	0.00322972	0.00161682
509835	-1.6896	0.00386758	0.00323417	0.000633411
509468	19.7504	0.00357863	0.00323863	0.000339995
509102	33.0816	0.00340408	0.00324311	0.000160969
508736	30.048	0.00332712	0.00324759	7.95298e-05
508370	15.552	0.00329237	0.00325208	4.02898e-05
508004	2.2336	0.0032417	0.00325658	-1.4877e-05
507637	0.224	0.00321783	0.00326108	-4.32489e-05
507271	10.8736	0.00320183	0.0032656	-6.37722e-05
506905	26.8288	0.00318811	0.00327013	-8.20194e-05
506539	37.1392	0.00317307	0.00327467	-0.000101598
506173	34.88	0.00313065	0.00327921	-0.000148563
505806	22.2848	0.00314154	0.00328377	-0.000142231
505440	8.5312	0.00314331	0.00328833	-0.000145026
505074	2.3424	0.00315764	0.00329291	-0.000135269
504708	6.4832	0.00316236	0.00329749	-0.000135135
504342	18.1952	0.00319037	0.00330209	-0.000111721
503975	31.3408	0.00318013	0.00330669	-0.000126559
503609	37.632	0.00317293	0.0033113	-0.000138372
503243	30.8224	0.00319882	0.00331593	-0.000117102
502877	13.792	0.00319053	0.00332056	-0.000130023
502510	-0.928	0.00323512	0.0033252	-9.00826e-05
502144	-2.9952	0.0031929	0.00332985	-0.000136952
501778	5.12	0.00317098	0.00333451	-0.000163538
501412	14.144	0.00319092	0.00333918	-0.000148267
501046	22.3872	0.00315891	0.00334387	-0.000184957
500679	35.1808	0.00318574	0.00334856	-0.000162821
500313	48.1664	0.00316869	0.00335326	-0.000184571
499947	43.8272	0.00315203	0.00335797	-0.000205943
499581	14.5664	0.00316796	0.00336269	-0.000194731
499215	-17.0624	0.00316436	0.00336742	-0.000203056
498848	-17.984	0.00315147	0.00337216	-0.000220692
498482	15.2704	0.00319316	0.00337691	-0.000183751
498116	49.408	0.00316414	0.00338167	-0.000217529
497750	54.1248	0.00321277	0.00338644	-0.000173675
497384	37.5488	0.00325274	0.00339122	-0.000138484
497017	30.6752	0.00340547	0.00339602	9.45392e-06
496651	45.1776	0.00399488	0.00340082	0.000594063
496285	62.272	0.00568276	0.00340563	0.00227713
495919	62.7264	0.0105208	0.00341045	0.00711038
495552	51.5264	0.0230723	0.00341528	0.019657
495186	44.9984	0.0550973	0.00342012	0.0516772
494820	49.408	0.132118	0.00342498	0.128693
494454	55.136	0.307692	0.00342984	0.304262
494088	53.1008	0.693052	0.00343471	0.689618
493721	42.2976	1.48655	0.0034396	1.48311
493355	26.4	3.05617	0.00344449	3.05273
492989	14.0736	5.98526	0.0034494	5.98181
492623	20.1472	11.1647	0.00345431	11.1613
492257	52.512	19.8915	0.00345924	19.888
491890	95.9488	33.6876	0.00346417	33.6842
491524	122.611	54.415	0.00346912	54.4116
491158	126.234	83.617	0.00347408	83.6135
490792	134.042	122.253	0.00347904	122.25
490425	173.466	170.13	0.00348402	170.127
490059	235.296	225.093	0.00348901	225.09
489693	285.696	283.2	0.00349401	283.196
489327	309.843	338.682	0.00349902	338.679
488961	324.102	384.948	0.00350404	384.944
488594	341.421	415.6	0.00350908	415.597
488228	345.741	426.382	0.00351412	426.379
487862	316.672	415.266	0.00351917	415.263
487496	265.856	384.119	0.00352424	384.116
487130	227.059	337.336	0.00352931	337.332
486763	211.494	281.171	0.0035344	281.167
486397	194.227	222.433	0.0035395	222.43
486031	151.898	167.009	0.00354461	167.006
485665	97.344	118.964	0.00354973	118.961
485299	63.0592	80.3837	0.00355486	80.3802
484932	59.8336	51.5604	0.00356	51.5568
484566	67.7824	31.3233	0.00356515	31.3197
484200	65.1136	18.0876	0.00357032	18.084
483834	50.8224	9.89287	0.0035755	9.8893
483467	35.9424	5.13019	0.00358068	5.12661
483101	25.7408	2.5287	0.00358588	2.52511
482735	18.4192	1.17778	0.00359109	1.17418
482369	13.2032	0.524327	0.00359631	0.520731
482003	10.432	0.221813	0.00360154	0.218211
481636	7.7696	0.090303	0.00360679	0.0866962
481270	4.288	0.0365315	0.00361204	0.0329195
480904	6.3808	0.0154568	0.00361731	0.0118395
480538	20.9984	0.00790813	0.00362259	0.00428554
480172	42.7584	0.00529434	0.00362788	0.00166646
479805	54.88	0.00446045	0.00363318	0.000827275
479439	45.6512	0.00417986	0.00363849	0.000541363
479073	20.1344	0.00418139	0.00364382	0.000537573
478707	-5.4016	0.00405927	0.00364915	0.000410115
478341	-16.064	0.00397866	0.0036545	0.000324156
477974	-5.8752	0.00390498	0.00365986	0.000245121
477608	18.6176	0.00386054	0.00366523	0.000195303
477242	39.2256	0.0038042	0.00367062	0.000133581
476876	37.7984	0.00374747	0.00367601	7.14606e-05
476509	15.8912	0.00365238	0.00368142	-2.90409e-05
476143	-2.7968	0.00360211	0.00368684	-8.47268e-05
475777	0.4992	0.00359298	0.00369227	-9.92895e-05
475411	15.4944	0.0035612	0.00369772	-0.000136517
475045	16.9216	0.00355195	0.00370317	-0.000151223
474678	0.6848	0.00354571	0.00370864	-0.000162929
474312	-9.4848	0.00355171	0.00371412	-0.000162412
473946	3.5456	0.0035607	0.00371961	-0.000158912
473580	24.7424	0.0036461	0.00372511	-7.90082e-05
473214	28.8064	0.0036162	0.00373063	-0.000114426
472847	16.7488	0.00360704	0.00373616	-0.000129115
472481	11.8464	0.00370095	0.0037417	-4.07504e-05
472115	21.6192	0.00368132	0.00374725	-6.59309e-05
471749	25.7344	0.00371631	0.00375282	-3.65111e-05
471383	8.6336	0.0037178	0.00375839	-4.05915e-05
471016	-13.696	0.00370972	0.00376399	-5.42664e-05
470650	-14.7072	0.00372879	0.00376959	-4.07975e-05
470284	6.3488	0.00367317	0.0037752	-0.000102031
469918	25.856	0.00368966	0.00378083	-9.11695e-05
469551	30.016	0.00366005	0.00378647	-0.000126424
469185	26.72	0.0036206	0.00379212	-0.000171529
468819	23.7312	0.00360593	0.00379779	-0.000191863
468453	14.5472	0.00359393	0.00380347	-0.000209538
468087	-3.0016	0.00353837	0.00380916	-0.000270786
467720	-11.3344	0.0035911	0.00381486	-0.000223765
467354	5.2928	0.00372955	0.00382058	-9.10285e-05
466988	31.936	0.00401395	0.00382631	0.000187635
466622	36.0832	0.00466933	0.00383205	0.000837277
466256	10.7968	0.00672017	0.00383781	0.00288236
465889	-14.2912	0.0123801	0.00384358	0.00853655
465523	-12.5824	0.0271286	0.00384936	0.0232793
465157	5.7024	0.064209	0.00385515	0.0603539
464791	11.9936	0.152791	0.00386096	0.14893
464425	0.4864	0.353234	0.00386678	0.349367
464058	-7.2064	0.78933	0.00387262	0.785458
463692	4.1984	1.67972	0.00387846	1.67584
463326	23.616	3.42525	0.00388432	3.42137
462960	32.0384	6.65262	0.0038902	6.64873
462593	26.5408	12.306	0.00389608	12.3021
462227	18.6176	21.7362	0.00390198	21.7323
461861	18.5408	36.494	0.0039079	36.4901
461495	32.4288	58.4291	0.00391382	58.4252
461129	67.8464	88.9873	0.00391977	88.9834
460762	127.104	128.941	0.00392572	128.937
460396	195.002	177.81	0.00393169	177.806
460030	246.573	233.118	0.00393767	233.114
459664	271.731	290.611	0.00394366	290.607
459298	283.827	344.359	0.00394967	344.355
458931	298.784	387.805	0.0039557	387.802
458565	313.894	414.833	0.00396173	414.829
458199	314.918	421.686	0.00396778	421.682
457833	296.89	406.923	0.00397385	406.919
457467	266.938	372.956	0.00397992	372.952
457100	229.549	324.539	0.00398602	324.535
456734	182.349	268.046	0.00399212	268.042
456368	129.92	210.123	0.00399824	210.119
456002	89.7984	156.346	0.00400438	156.342
455635	74.9376	110.367	0.00401052	110.363
455269	75.264	73.9075	0.00401669	73.9035
454903	66.8672	46.986	0.00402286	46.9819
454537	39.936	28.2905	0.00402905	28.2864
454171	9.9264	16.1937	0.00403526	16.1897
453804	-1.0496	8.77972	0.00404148	8.77568
453438	11.5648	4.51373	0.00404771	4.50968
453072	32.6528	2.20611	0.00405396	2.20205
452706	44.832	1.01906	0.00406022	1.015
452340	43.3024	0.450399	0.0040665	0.446332
451973	34.9248	0.189422	0.00407279	0.185349
451607	28.0832	0.0770942	0.0040791	0.0730151
451241	25.6384	0.0314904	0.00408542	0.027405
450875	25.4848	0.0138333	0.00409176	0.00974155
450509	25.4144	0.00748572	0.00409811	0.00338761
450142	25.5936	0.00536738	0.00410447	0.00126291
449776	26.5408	0.0046996	0.00411085	0.00058875
449410	27.0016	0.00448181	0.00411725	0.000364558
449044	25.8432	0.00436733	0.00412366	0.000243668
448677	25.1392	0.00432551	0.00413008	0.000195431
448311	27.4944	0.00428143	0.00413652	0.000144904
447945	29.7472	0.00427607	0.00414298	0.000133094
447579	24.5248	0.00416331	0.00414945	1.38643e-05
447213	11.6672	0.00400388	0.00415593	-0.000152051
446846	3.392	0.00405453	0.00416243	-0.000107908
446480	10.4384	0.00400557	0.00416895	-0.000163383
446114	25.0816	0.00448913	0.00417548	0.000313648
445748	27.3408	0.00452362	0.00418203	0.000341588
445382	10.8224	0.00434514	0.00418859	0.000156552
445015	-5.0176	0.0043406	0.00419517	0.000145427
444649	-1.2928	0.0042814	0.00420176	7.96377e-05
444283	15.3792	0.00421048	0.00420837	2.11205e-06
443917	21.7408	0.00419741	0.00421499	-1.75807e-05
443550	10.2464	0.00417907	0.00422163	-4.25644e-05
443184	-1.312	0.00413037	0.00422829	-9.79231e-05
442818	3.8208	0.00417535	0.00423496	-5.96086e-05
442452	18.5152	0.00415396	0.00424165	-8.76891e-05
442086	24.9472	0.0041885	0.00424835	-5.98481e-05
441719	20.8512	0.00425306	0.00425507	-2.00692e-06
441353	19.8016	0.0042471	0.0042618	-1.47063e-05
440987	27.2	0.00428734	0.00426855	1.87805e-05
440621	32.0384	0.00431705	0.00427532	4.17256e-05
440255	25.8624	0.00430997	0.0042821	2.78648e-05
439888	16.6528	0.00429642	0.0042889	7.51611e-06
439522	15.2832	0.00428695	0.00429572	-8.76358e-06
439156	18.1632	0.00428486	0.00430255	-1.76926e-05
438790	15.104	0.00425807	0.0043094	-5.13329e-05
438424	8.256	0.00422961	0.00431626	-8.6649e-05
438057	8.992	0.00420772	0.00432314	-0.000115423
437691	16.8	0.00420428	0.00433004	-0.000125759
437325	16.9024	0.00430086	0.00433695	-3.60881e-05
436959	3.8848	0.00456726	0.00434388	0.000223374
436592	-5.7856	0.00538912	0.00435083	0.00103829
436226	4.0128	0.00773656	0.00435779	0.00337877
435860	23.488	0.0143478	0.00436477	0.009983
435494	27.392	0.0313742	0.00437177	0.0270024
435128	8.6272	0.0739763	0.00437878	0.0695975
434761	-12.7296	0.174996	0.00438582	0.17061
434395	-16.0512	0.401814	0.00439286	0.397421
434029	-2.5408	0.892036	0.00439993	0.887636
433663	14.7776	1.88611	0.00440701	1.8817
433297	28.2112	3.82146	0.00441411	3.81705
432930	38.0992	7.37448	0.00442122	7.37006
432564	42.528	13.5544	0.00442836	13.55
432198	41.3568	23.7868	0.00443551	23.7824
431832	47.3408	39.68	0.00444268	39.6755
431466	77.8816	63.1172	0.00444986	63.1127
431099	131.84	95.4996	0.00445706	95.4952
430733	187.162	137.471	0.00446428	137.466
430367	227.558	188.316	0.00447152	188.311
430001	261.229	245.253	0.00447878	245.249
429634	303.725	303.689	0.00448605	303.685
429268	351.123	357.433	0.00449334	357.429
428902	383.571	399.803	0.00450065	399.798
428536	391.072	424.753	0.00450798	424.748
428170	380.506	428.814	0.00451532	428.809
427803	356.493	410.954	0.00452268	410.95
427437	312.237	374.047	0.00453006	374.042
427071	247.776	323.227	0.00453746	323.222
426705	183.181	265.104	0.00454488	265.1
426339	138.688	206.359	0.00455231	206.355
425972	109.446	152.47	0.00455976	152.466
425606	76.3648	106.873	0.00456724	106.869
425240	39.8272	71.0619	0.00457472	71.0573
424874	23.136	44.8579	0.00458223	44.8534
424508	36.2048	26.8164	0.00458976	26.8118
424141	53.7216	15.2417	0.0045973	15.2371
423775	44.5568	8.20482	0.00460487	8.20021
423409	13.6512	4.18838	0.00461245	4.18377
423043	-4.352	2.03287	0.00462005	2.02825
422676	8.1664	0.93264	0.00462767	0.928012
422310	30.2464	0.409757	0.00463531	0.405121
421944	33.4336	0.171644	0.00464297	0.167001
421578	19.776	0.0699162	0.00465064	0.0652656
421212	14.5856	0.0289507	0.00465834	0.0242924
420845	29.152	0.0131659	0.00466606	0.00849981
420479	47.072	0.0075885	0.00467379	0.00291471
420113	48.9216	0.00569409	0.00468154	0.00101255
419747	36.7936	0.00507509	0.00468932	0.000385771
419381	26.9376	0.00490851	0.00469711	0.000211407
419014	25.9008	0.00483509	0.00470492	0.000130175
418648	24.3392	0.00477928	0.00471275	6.65312e-05
418282	13.1008	0.00472666	0.0047206	6.05557e-06
417916	-2.5984	0.00470771	0.00472847	-2.07572e-05
417550	-8.2496	0.00468844	0.00473636	-4.79244e-05
417183	3.616	0.0046466	0.00474427	-9.76748e-05
416817	24.5184	0.004617	0.0047522	-0.0001352
416451	37.28	0.00459044	0.00476015	-0.000169714
416085	32.0768	0.0045724	0.00476812	-0.000195723
415718	15.6416	0.00453423	0.00477611	-0.00024188
415352	3.7568	0.00451923	0.00478412	-0.000264891
414986	4.3456	0.00452477	0.00479215	-0.000267372
414620	10.176	0.00451808	0.0048002	-0.000282117
414254	11.1872	0.00452978	0.00480827	-0.000278488
413887	7.7312	0.00456033	0.00481636	-0.000256028
413521	9.0432	0.00458497	0.00482447	-0.000239499
413155	17.4144	0.00454409	0.0048326	-0.000288514
412789	22.528	0.00457055	0.00484075	-0.000270205
412423	15.0528	0.00458535	0.00484892	-0.000263577
412056	0.4864	0.00457613	0.00485712	-0.000280983
411690	-6.4512	0.00457303	0.00486533	-0.000292302
411324	0.224	0.00457891	0.00487357	-0.000294658
410958	12.1344	0.0046097	0.00488182	-0.000272125
410592	18.4704	0.00463254	0.0048901	-0.000257562
410225	17.1904	0.00458541	0.0048984	-0.000312986
409859	12.4736	0.0045727	0.00490672	-0.000334012
409493	6.7008	0.00461179	0.00491506	-0.000303267
409127	-0.3584	0.0045843	0.00492342	-0.000339114
408760	-6.688	0.0046012	0.0049318	-0.000330607
408394	-7.3472	0.00462405	0.00494021	-0.000316153
408028	1.0432	0.00460746	0.00494863	-0.000341177
407662	17.2736	0.00466707	0.00495708	-0.000290009
407296	36.1856	0.00476144	0.00496555	-0.000204108
406929	49.7216	0.00511046	0.00497404	0.000136422
406563	49.5616	0.0060241	0.00498255	0.00104155
406197	34.3616	0.00886031	0.00499109	0.00386923
405831	14.784	0.0166075	0.00499964	0.0116078
405465	6.0928	0.0367092	0.00500822	0.031701
405098	12.0256	0.0868884	0.00501682	0.0818715
404732	20.1664	0.205076	0.00502545	0.200051
404366	17.0112	0.469611	0.00503409	0.464577
404000	5.3248	1.0383	0.00504276	1.03325
403634	0.4672	2.18691	0.00505145	2.18186
403267	9.8176	4.4132	0.00506016	4.40814
402901	22.3424	8.48282	0.00506889	8.47775
402535	23.5264	15.5319	0.00507765	15.5268
402169	15.5328	27.1536	0.00508643	27.1485
401802	18.6752	45.1296	0.00509524	45.1245
401436	51.4752	71.5248	0.00510406	71.5197
401070	111.699	107.833	0.00511291	107.828
400704	178.957	154.677	0.00512178	154.672
400338	234.918	211.14	0.00513068	211.135
399971	279.142	274.019	0.00513959	274.014
399605	323.571	338.123	0.00514854	338.118
399239	372.096	396.572	0.0051575	396.567
398873	409.427	442.029	0.00516649	442.024
398507	414.758	467.964	0.0051755	467.958
398140	386.227	470.769	0.00518454	470.764
397774	345.978	449.557	0.0051936	449.552
397408	316.755	407.717	0.00520268	407.712
397042	297.126	351.049	0.00521178	351.044
396675	266.093	286.877	0.00522091	286.872
396309	211.085	222.486	0.00523007	222.48
395943	143.642	163.779	0.00523925	163.773
395577	85.6896	114.371	0.00524845	114.365
395211	47.9168	75.7611	0.00525768	75.7559
394844	27.8272	47.6432	0.00526693	47.638
394478	22.5216	28.3719	0.00527621	28.3666
394112	31.9488	16.0645	0.00528551	16.0592
393746	48.416	8.61429	0.00529483	8.60899
393380	54.4512	4.38046	0.00530418	4.37516
393013	39.7312	2.11802	0.00531355	2.11271
392647	16.224	0.96819	0.00532295	0.962867
392281	8.0448	0.423965	0.00533238	0.418633
391915	24.4352	0.177238	0.00534183	0.171896
391549	48.1792	0.0722229	0.0053513	0.0668716
391182	54.784	0.0301499	0.0053608	0.0247891
390816	36.9472	0.0139966	0.00537033	0.00862629
390450	11.0272	0.00833442	0.00537988	0.00295455
390084	-0.2624	0.00642492	0.00538945	0.00103547
389717	7.8464	0.00581666	0.00539905	0.000417604
389351	19.3216	0.00566508	0.00540868	0.000256393
388985	16.3136	0.0055565	0.00541834	0.000138167
388619	-0.864	0.00556214	0.00542801	0.00013413
388253	-14.5024	0.00552766	0.00543772	8.99427e-05
387886	-9.696	0.00552889	0.00544745	8.1444e-05
387520	9.2608	0.00549058	0.00545721	3.33748e-05
387154	24.5248	0.00549128	0.00546699	2.42916e-05
386788	23.6864	0.00542974	0.0054768	-4.70606e-05
386422	9.4144	0.0054073	0.00548664	-7.93382e-05
386055	-8.1856	0.0053776	0.0054965	-0.000118895
385689	-21.568	0.0053619	0.00550639	-0.000144484
385323	-26.0928	0.00537576	0.0055163	-0.000140548
384957	-18.1376	0.00532444	0.00552625	-0.000201806
384591	-0.3328	0.00533545	0.00553622	-0.000200763
384224	15.0464	0.00532776	0.00554621	-0.000218456
383858	16.9216	0.00535338	0.00555624	-0.000202854
383492	9.5168	0.00531416	0.00556629	-0.000252132
383126	8.736	0.00530515	0.00557636	-0.000271218
382759	21.7088	0.00535359	0.00558647	-0.000232879
382393	37.2608	0.00545438	0.0055966	-0.000142225
382027	41.5232	0.00547873	0.00560676	-0.000128038
381661	35.68	0.00541534	0.00561695	-0.000201611
381295	30.7008	0.00553374	0.00562717	-9.34319e-05
380928	30.1248	0.00541082	0.00563741	-0.000226596
380562	29.248	0.00540328	0.00564768	-0.0002444
380196	29.408	0.00541388	0.00565798	-0.000244103
379830	39.4304	0.00535431	0.00566831	-0.000313999
379464	58.0864	0.00538081	0.00567867	-0.000297864
379097	66.72	0.00533301	0.00568906	-0.000356047
378731	50.7264	0.00534306	0.00569947	-0.000356406
378365	20.2816	0.00533913	0.00570991	-0.000370777
377999	0.9024	0.00532232	0.00572038	-0.000398059
377633	3.3856	0.00547025	0.00573088	-0.000260635
377266	14.6816	0.00557881	0.00574141	-0.000162603
376900	19.456	0.00598981	0.00575197	0.000237847
376534	19.008	0.00723014	0.00576255	0.00146759
376168	23.3472	0.0106779	0.00577317	0.00490469
375801	33.6448	0.0200994	0.00578382	0.0143156
375435	41.5936	0.0442048	0.00579449	0.0384104
375069	41.3696	0.103996	0.0058052	0.0981905
374703	33.4272	0.244105	0.00581593	0.23829
374337	20.0832	0.556333	0.00582669	0.550507
373970	6.8608	1.22467	0.00583749	1.21884
373604	5.76	2.56839	0.00584831	2.56254
373238	25.536	5.16204	0.00585917	5.15618
372872	56.1728	9.88308	0.00587005	9.87721
372506	75.4752	18.0265	0.00588097	18.0206
372139	77.6832	31.3935	0.00589191	31.3876
371773	85.1712	51.9787	0.00590289	51.9728
371407	120.794	82.0668	0.00591389	82.0609
371041	176.787	123.255	0.00592493	123.249
370675	225.722	176.121	0.005936	176.116
370308	259.731	239.477	0.0059471	239.471
369942	300.243	309.577	0.00595823	309.571
369576	362.426	380.474	0.00596939	380.468
369210	426.477	444.436	0.00598058	444.43
368843	458.752	493.336	0.00599181	493.33
368477	453.178	520.087	0.00600306	520.081
368111	433.997	520.969	0.00601435	520.962
367745	418.611	495.326	0.00602567	495.32
367379	395.494	447.233	0.00603702	447.227
367012	346.438	383.33	0.00604841	383.324
366646	276.781	311.818	0.00605982	311.812
366280	210.765	240.693	0.00607127	240.687
365914	163.354	176.34	0.00608275	176.334
365548	130.458	122.546	0.00609427	122.54
365181	105.248	80.7777	0.00610581	80.7716
364815	89.4336	50.5452	0.00611739	50.5391
364449	83.072	29.9469	0.006129	29.9407
364083	74.9056	16.8702	0.00614065	16.864
363717	53.664	8.99946	0.00615233	8.99331
363350	24.6976	4.5527	0.00616404	4.54654
362984	5.8304	2.19003	0.00617578	2.18386
362618	6.4832	0.995957	0.00618756	0.98977
362252	19.0848	0.434294	0.00619938	0.428094
361885	31.552	0.1809	0.00621122	0.174689
361519	40.3776	0.0736899	0.0062231	0.0674668
361153	45.4976	0.0314275	0.00623502	0.0251925
360787	46.3552	0.0155428	0.00624697	0.00929588
360421	41.8432	0.00982483	0.00625895	0.00356588
360054	35.8336	0.00779059	0.00627097	0.00151962
359688	35.136	0.00704467	0.00628302	0.000761655
359322	38.3808	0.00684191	0.00629511	0.000546806
358956	36.0128	0.00668568	0.00630723	0.000378449
358590	24.896	0.00667264	0.00631939	0.00035326
358223	16.1792	0.00652247	0.00633158	0.000190895
357857	21.8688	0.00643148	0.00634381	8.76763e-05
357491	36.9728	0.00636729	0.00635607	1.12194e-05
357125	43.1936	0.00628712	0.00636837	-8.12477e-05
356759	31.0208	0.00624724	0.0063807	-0.00013346
356392	10.4064	0.00619877	0.00639307	-0.000194298
356026	-3.5392	0.00616132	0.00640548	-0.000244153
355660	-7.6928	0.00615819	0.00641792	-0.000259726
355294	-8.5952	0.00617683	0.0064304	-0.000253571
354927	-6.9696	0.0062047	0.00644291	-0.000238213
354561	3.84	0.00621934	0.00645547	-0.000236127
354195	21.8368	0.00624333	0.00646805	-0.000224725
353829	31.4432	0.00627324	0.00648068	-0.00020744
353463	22.0416	0.00633254	0.00649334	-0.0001608
353096	4.864	0.00631564	0.00650604	-0.000190396
352730	1.2928	0.00637741	0.00651878	-0.000141372
352364	15.5584	0.00635903	0.00653155	-0.000172517
351998	29.5296	0.00634926	0.00654436	-0.000195104
351632	27.2	0.006376	0.00655721	-0.000181211
351265	14.752	0.00633556	0.0065701	-0.000234536
350899	10.1376	0.00631082	0.00658303	-0.000272206
350533	18.5216	0.00631771	0.00659599	-0.000278283
350167	28.5824	0.00635978	0.00660899	-0.000249206
349800	30.56	0.00632962	0.00662203	-0.000292409
349434	27.6288	0.00630833	0.00663511	-0.000326785
349068	27.3664	0.00634895	0.00664823	-0.000299278
348702	30.6688	0.00633859	0.00666138	-0.000322795
348336	34.0096	0.006388	0.00667458	-0.00028658
347969	36.6272	0.00642262	0.00668781	-0.000265193
347603	38.7392	0.00648548	0.00670109	-0.000215607
347237	37.1712	0.00668835	0.0067144	-2.60501e-05
346871	30.2272	0.00723469	0.00672776	0.000506936
346505	24.0768	0.00867977	0.00674115	0.00193862
346138	25.4528	0.0127341	0.00675458	0.00597949
345772	28.4992	0.0237105	0.00676806	0.0169424
345406	19.1936	0.0516228	0.00678157	0.0448413
345040	-3.0848	0.120556	0.00679513	0.11376
344674	-18.3296	0.281353	0.00680872	0.274544
344307	-8.7168	0.637797	0.00682236	0.630975
343941	16.7616	1.39649	0.00683604	1.38965
343575	32.192	2.9135	0.00684975	2.90665
343209	25.8496	5.82557	0.00686351	5.8187
342842	12.192	11.0956	0.00687732	11.0887
342476	10.6688	20.1325	0.00689116	20.1257
342110	24.2304	34.8741	0.00690504	34.8672
341744	45.536	57.4319	0.00691897	57.4249
341378	75.9104	90.181	0.00693294	90.174
341011	126.362	134.693	0.00694695	134.686
340645	200.845	191.391	0.006961	191.384
340279	287.418	258.762	0.0069751	258.755
339913	367.949	332.599	0.00698924	332.592
339547	430.406	406.407	0.00700342	406.4
339180	470.758	471.972	0.00701765	471.965
338814	489.818	520.84	0.00703192	520.833
338448	491.782	545.856	0.00704623	545.849
338082	480.525	543.556	0.00706058	543.549
337716	453.267	513.745	0.00707498	513.737
337349	403.315	461.115	0.00708943	461.107
336983	334.541	392.882	0.00710392	392.875
336617	267.411	317.695	0.00711845	317.688
336251	221.568	243.772	0.00713303	243.764
335884	193.472	177.542	0.00714765	177.535
335518	160.928	122.652	0.00716232	122.645
335152	111.904	80.3714	0.00717703	80.3642
334786	60.4608	49.9967	0.00719179	49.9895
334420	29.6192	29.4479	0.00720659	29.4407
334053	25.7792	16.4938	0.00722144	16.4866
333687	36.224	8.7481	0.00723634	8.74087
333321	45.6064	4.40078	0.00725128	4.39353
332955	45.952	2.10553	0.00726627	2.09826
332589	34.3168	0.952898	0.0072813	0.945617
332222	12.896	0.41402	0.00729638	0.406723
331856	-6.9568	0.172414	0.00731151	0.165103
331490	-11.8656	0.0708685	0.00732668	0.0635418
331124	-1.2096	0.0305918	0.00734191	0.0232499
330758	7.9744	0.0153514	0.00735718	0.00799426
330391	5.4592	0.00998668	0.00737249	0.00261419
330025	2.3488	0.00816774	0.00738786	0.000779882
329659	13.3632	0.00764058	0.00740327	0.000237301
329293	31.5136	0.007454	0.00741873	3.52648e-05
328926	34.7264	0.0074123	0.00743425	-2.19442e-05
328560	17.8432	0.00737078	0.0074498	-7.90288e-05
328194	1.5488	0.00741021	0.00746541	-5.51978e-05
327828	2.752	0.00741056	0.00748107	-7.0507e-05
327462	10.2528	0.00741155	0.00749678	-8.52235e-05
327095	3.3536	0.00738574	0.00751253	-0.000126794
326729	-13.9712	0.00744641	0.00752834	-8.19249e-05
326363	-16.5056	0.00743826	0.00754419	-0.000105936
325997	4.7616	0.00744325	0.0075601	-0.000116851
325631	26.7392	0.00744867	0.00757605	-0.00012738
325264	24.5504	0.00747707	0.00759206	-0.000114989
324898	4.2496	0.00744918	0.00760812	-0.000158938
324532	-8.1664	0.00747187	0.00762423	-0.000152358
324166	-2.4896	0.00752838	0.00764038	-0.000112004
323800	6.8992	0.00749123	0.0076566	-0.000165361
323433	6.176	0.00751138	0.00767286	-0.000161478
323067	-0.5248	0.00752022	0.00768917	-0.000168952
322701	-3.6544	0.00750484	0.00770554	-0.000200698
322335	-4.3392	0.00753532	0.00772196	-0.000186632
321968	-7.744	0.00755243	0.00773843	-0.000185997
321602	-8.7552	0.00761664	0.00775495	-0.000138309
321236	1.5424	0.00763585	0.00777153	-0.000135682
320870	19.2768	0.0076373	0.00778816	-0.000150856
320504	30.2144	0.00774033	0.00780484	-6.45128e-05
320137	29.5104	0.00795188	0.00782158	0.000130294
319771	27.6672	0.00773916	0.00783837	-9.92091e-05
319405	33.0688	0.00815078	0.00785522	0.000295561
319039	39.8272	0.00823416	0.00787212	0.000362041
318673	39.5392	0.00821718	0.00788907	0.000328106
318306	35.264	0.0123895	0.00790608	0.00448342
317940	33.3568	0.0124386	0.00792314	0.00451549
317574	28.9408	0.0121033	0.00794026	0.00416303
317208	13.792	0.0117798	0.00795744	0.00382236
316842	-4.4736	0.0116699	0.00797467	0.00369526
316475	-7.6096	0.0125481	0.00799196	0.00455616
316109	5.632	0.0164627	0.0080093	0.00845338
315743	14.08	0.0285545	0.0080267	0.0205278
315377	6.2784	0.0599167	0.00804416	0.0518726
315010	3.136	0.137459	0.00806167	0.129397
314644	29.4528	0.317713	0.00807924	0.309634
314278	72.0512	0.715341	0.00809687	0.707244
313912	88.704	1.55686	0.00811455	1.54874
313546	61.8304	3.23003	0.0081323	3.22189
313179	24.6208	6.42313	0.0081501	6.41498
312813	18.6944	12.1676	0.00816796	12.1595
312447	43.3472	21.9602	0.00818588	21.952
312081	67.3408	37.8349	0.00820386	37.8267
311715	81.4656	61.9743	0.0082219	61.9661
311348	112.371	96.7879	0.00824	96.7797
310982	179.654	143.777	0.00825815	143.769
310616	263.501	203.186	0.00827637	203.178
310250	331.168	273.197	0.00829465	273.188
309884	380.269	349.216	0.00831299	349.207
309517	434.323	424.334	0.00833139	424.325
309151	500.307	490.036	0.00834985	490.027
308785	552.8	537.735	0.00836837	537.726
308419	565.011	560.383	0.00838695	560.374
308052	538.509	554.865	0.0084056	554.856
307686	492.538	521.459	0.0084243	521.451
307320	437.722	465.382	0.00844307	465.373
306954	374.035	394.265	0.00846191	394.256
306588	306.176	317.007	0.0084808	316.998
306221	243.968	241.862	0.00849976	241.853
305855	188.25	175.159	0.00851879	175.151
305489	131.834	120.324	0.00853787	120.316
305123	78.3872	78.4047	0.00855702	78.3961
304757	46.3488	48.5026	0.00857624	48.494
304390	45.2928	28.4091	0.00859552	28.4005
304024	58.4448	15.8259	0.00861487	15.8173
303658	60.5056	8.34865	0.00863428	8.34002
303292	47.5392	4.17806	0.00865375	4.1694
302925	36.8448	1.98923	0.0086733	1.98056
302559	38.5536	0.89646	0.0086929	0.887767
302193	41.4208	0.388597	0.00871258	0.379884
301827	31.1872	0.162216	0.00873232	0.153484
301461	11.5776	0.0675855	0.00875213	0.0588333
301094	-1.9072	0.0302714	0.00877201	0.0214994
300728	-2.9696	0.0162442	0.00879195	0.00745226
300362	1.216	0.0113754	0.00881197	0.00256341
299996	3.8656	0.00971437	0.00883205	0.000882324
299630	6.4896	0.00921038	0.0088522	0.000358182
299263	11.488	0.00910319	0.00887242	0.00023077
298897	15.0336	0.00901296	0.00889271	0.000120251
298531	12.416	0.00895495	0.00891306	4.18838e-05
298165	5.6896	0.00882383	0.00893349	-0.000109658
297799	0.608	0.00883004	0.00895399	-0.00012395
297432	-0.9152	0.00871313	0.00897456	-0.00026143
297066	-0.5568	0.00897467	0.0089952	-2.05266e-05
296700	1.0624	0.00891005	0.00901591	-0.000105861
296334	6.2464	0.00881642	0.00903669	-0.000220275
295967	14.016	0.00883435	0.00905755	-0.000223196
295601	18.5152	0.00883436	0.00907848	-0.000244114
295235	15.3472	0.00880415	0.00909948	-0.000295328
294869	7.3792	0.00881493	0.00912055	-0.000305623
294503	1.9072	0.00884526	0.00914169	-0.00029643
294136	2.6112	0.00886534	0.00916291	-0.000297578
293770	6.0032	0.00889989	0.00918421	-0.000284317
293404	5.5104	0.00893317	0.00920558	-0.00027241
293038	-1.2608	0.00896381	0.00922702	-0.000263208
292672	-8.8832	0.00899996	0.00924854	-0.000248578
292305	-7.9808	0.00903534	0.00927013	-0.000234787
291939	4.8256	0.00906647	0.0092918	-0.000225322
291573	21.952	0.00911721	0.00931354	-0.000196328
291207	30.8096	0.0091958	0.00933536	-0.000139561
290841	26.7968	0.00917461	0.00935726	-0.000182648
290474	17.856	0.00920352	0.00937924	-0.00017572
290108	14.1376	0.00920596	0.00940129	-0.000195328
289742	16.2176	0.00924438	0.00942342	-0.000179041
289376	16.7296	0.00918813	0.00944563	-0.000257494
289009	12.8896	0.00919986	0.00946791	-0.00026805
288643	11.7056	0.00913006	0.00949028	-0.000360225
288277	19.8272	0.00909584	0.00951273	-0.000416884
287911	32.0256	0.00909881	0.00953525	-0.000436435
287545	34.8288	0.00917176	0.00955786	-0.0003861
287178	22.0672	0.00938501	0.00958054	-0.000195535
286812	3.1488	0.0100052	0.00960331	0.000401884
286446	-6.432	0.0120572	0.00962616	0.00243106
286080	-1.5232	0.0175415	0.00964909	0.00789243
285714	8.416	0.0323896	0.0096721	0.0227175
285347	11.8528	0.0697221	0.00969519	0.0600269
284981	9.1584	0.160928	0.00971837	0.15121
284615	10.6496	0.371075	0.00974163	0.361334
284249	20.9792	0.831738	0.00976497	0.821973
283883	30.2976	1.80118	0.0097884	1.79139
283516	25.8368	3.71829	0.00981191	3.70848
283150	9.952	7.35756	0.00983551	7.34772
282784	-0.1152	13.8696	0.00985919	13.8597
282418	8.4096	24.9126	0.00988296	24.9027
282051	32.16	42.7178	0.00990681	42.7079
281685	63.648	69.6496	0.00993075	69.6396
281319	107.002	108.279	0.00995478	108.269
280953	173.894	160.129	0.00997889	160.119
280587	260.71	225.308	0.0100031	225.298
280220	346.976	301.642	0.0100274	301.631
279854	418.074	383.963	0.0100518	383.953
279488	478.579	464.64	0.0100762	464.63
279122	534.938	534.432	0.0101008	534.422
278756	574.253	584.155	0.0101254	584.145
278389	575.251	606.43	0.0101502	606.42
278023	537.574	598.217	0.010175	598.207
277657	484.474	560.154	0.0101999	560.143
277291	432.979	498.14	0.0102249	498.13
276925	376.205	420.556	0.01025	420.546
276558	304.39	337.009	0.0102752	336.999
276192	229.798	256.278	0.0103005	256.267
275826	174.355	185.012	0.0103259	185.001
275460	138.291	126.699	0.0103514	126.688
275093	100.467	82.311	0.0103769	82.3007
274727	52.5056	50.7717	0.0104026	50.7613
274361	14.8928	29.6541	0.0104284	29.6436
273995	9.0496	16.4755	0.0104542	16.4651
273629	26.2464	8.66911	0.0104802	8.65863
273262	38.7392	4.32825	0.0105062	4.31774
272896	34.7456	2.05654	0.0105324	2.04601
272530	26.496	0.925479	0.0105586	0.91492
272164	24.9664	0.401204	0.010585	0.390619
271798	23.5712	0.168072	0.0106114	0.157461
271431	13.12	0.0708668	0.010638	0.0602288
271065	-0.3072	0.0326136	0.0106646	0.021949
270699	-3.7952	0.0182696	0.0106913	0.00757824
270333	3.7952	0.0132909	0.0107182	0.00257269
269967	9.9328	0.0116859	0.0107451	0.000940786
269600	7.04	0.0111831	0.0107722	0.000410979
269234	0.1344	0.0110144	0.0107993	0.000215044
268868	-2.5152	0.0109447	0.0108266	0.000118101
268502	1.8944	0.0109557	0.0108539	0.000101837
268135	11.6416	0.0109382	0.0108814	5.68116e-05
267769	22.304	0.0108537	0.0109089	-5.51924e-05
267403	25.8048	0.0108508	0.0109366	-8.58287e-05
267037	15.7952	0.0108015	0.0109644	-0.000162882
266671	-2.4704	0.0107725	0.0109922	-0.000219752
266304	-14.8032	0.0107467	0.0110202	-0.000273495
265938	-15.2896	0.0107119	0.0110483	-0.000336387
265572	-13.8496	0.0107869	0.0110765	-0.000289654
265206	-19.9168	0.0107055	0.0111048	-0.000399318
264840	-25.7152	0.0108357	0.0111332	-0.000297536
264473	-16.8192	0.0108956	0.0111618	-0.000266115
264107	4.2112	0.0109341	0.0111904	-0.000256295
263741	18.5664	0.0109896	0.0112191	-0.000229505
263375	16.9088	0.0110394	0.011248	-0.000208592
263009	10.6496	0.0110894	0.011277	-0.000187516
262642	11.0464	0.0110968	0.011306	-0.000209252
262276	10.368	0.0111774	0.0113352	-0.000157828
261910	-3.2	0.0111981	0.0113645	-0.000166387
261544	-20.4416	0.011265	0.0113939	-0.000128933
261177	-19.1104	0.0113044	0.0114235	-0.000119071
260811	2.8672	0.0113448	0.0114531	-0.000108338
260445	19.52	0.0114023	0.0114829	-8.06284e-05
260079	10.56	0.0113854	0.0115128	-0.000127377
259713	-10.9312	0.0114432	0.0115428	-9.95889e-05
259346	-17.1264	0.0114811	0.0115729	-9.1754e-05
258980	-3.5328	0.0114961	0.0116031	-0.000106994
258614	7.5392	0.0115013	0.0116335	-0.000132156
258248	0.672	0.0115529	0.0116639	-0.000110988
257882	-12.0832	0.011539	0.0116945	-0.00015551
257515	-10.7648	0.0116179	0.0117252	-0.00010729
257149	4.6976	0.0118628	0.011756	0.000106749
256783	17.9648	0.0126327	0.011787	0.000845651
256417	21.216	0.0149777	0.0118181	0.00315966
256050	21.9648	0.0214851	0.0118493	0.00963579
255684	27.8784	0.0388404	0.0118806	0.0269598
255318	31.9104	0.0826569	0.011912	0.0707449
254952	25.6384	0.188702	0.0119436	0.176758
254586	15.8016	0.432553	0.0119753	0.420578
254219	17.664	0.963863	0.0120071	0.951856
253853	33.664	2.07671	0.0120391	2.06467
253487	48.416	4.26736	0.0120712	4.25529
253121	48.352	8.40722	0.0121034	8.39511
252755	39.5072	15.7829	0.0121357	15.7708
252388	40.1536	28.2383	0.0121682	28.2261
252022	60.4416	48.2366	0.0122008	48.2244
251656	96.9536	78.3632	0.0122335	78.351
251290	145.907	121.401	0.0122663	121.389
250924	211.814	178.932	0.0122993	178.92
250557	297.312	250.954	0.0123325	250.942
250191	390.554	334.927	0.0123657	334.915
249825	471.667	425.055	0.0123991	425.043
249459	531.059	512.872	0.0124326	512.86
249092	573.517	588.258	0.0124663	588.246
248726	602.445	641.247	0.0125001	641.235
248360	608.326	663.956	0.012534	663.943
247994	579.584	653.303	0.0125681	653.291
247628	520.378	610.232	0.0126023	610.22
247261	449.382	541.384	0.0126367	541.372
246895	381.267	456.01	0.0126712	455.998
246529	316.851	364.604	0.0127058	364.592
246163	252.269	276.659	0.0127406	276.647
245797	190.035	199.307	0.0127755	199.294
245430	136.646	136.209	0.0128106	136.196
245064	94.9632	88.315	0.0128458	88.3021
244698	64.4096	54.3708	0.0128812	54.3579
244332	44.7808	31.6968	0.0129167	31.6839
243966	33.7152	17.5796	0.0129523	17.5667
243599	23.9808	9.23441	0.0129881	9.22142
243233	11.3344	4.60354	0.0130241	4.59052
242867	3.008	2.18466	0.0130601	2.1716
242501	9.1584	0.982524	0.0130964	0.969428
242134	25.4848	0.426343	0.0131328	0.41321
241768	34.1824	0.179437	0.0131693	0.166268
241402	26.4064	0.0766531	0.013206	0.063447
241036	13.5104	0.0362992	0.0132429	0.0230563
240670	8.9728	0.0212046	0.0132799	0.00792465
240303	9.4784	0.0159749	0.0133171	0.00265779
239937	5.9776	0.0142093	0.0133544	0.000854854
239571	4.8192	0.0136545	0.0133919	0.0002626
239205	19.1872	0.0135099	0.0134295	8.03443e-05
238839	40.9792	0.0134638	0.0134673	-3.4605e-06
238472	40.5888	0.0135125	0.0135053	7.19822e-06
238106	7.0208	0.0135179	0.0135434	-2.54537e-05
237740	-29.8688	0.0135179	0.0135817	-6.374e-05
237374	-34.9824	0.01347	0.0136201	-0.000150109
237008	-12.7808	0.0134863	0.0136587	-0.000172406
236641	2.7648	0.0134838	0.0136975	-0.000213687
236275	-2.2592	0.0134516	0.0137364	-0.000284838
235909	-7.584	0.0134009	0.0137755	-0.000374589
235543	2.7264	0.0133603	0.0138148	-0.000454513
235176	12.7168	0.0133571	0.0138542	-0.000497137
234810	2.1568	0.0132353	0.0138938	-0.000658511
234444	-16.4864	0.0131713	0.0139336	-0.000762285
234078	-13.5808	0.0130529	0.0139735	-0.000920634
233712	12.4096	0.0131175	0.0140136	-0.000896179
233345	30.5152	0.0129761	0.0140539	-0.0010778
232979	20.7104	0.0130692	0.0140944	-0.00102521
232613	-0.7232	0.0131763	0.014135	-0.000958729
232247	-9.8304	0.0132751	0.0141759	-0.000900756
231881	-9.0496	0.0134326	0.0142168	-0.000784276
231514	-15.0784	0.0136433	0.014258	-0.000614676
231148	-25.9968	0.0137194	0.0142994	-0.000579994
230782	-22.5792	0.0138073	0.0143409	-0.000533613
230416	-0.64	0.0139414	0.0143826	-0.000441228
230050	19.3024	0.0140862	0.0144245	-0.000338271
229683	20.0768	0.0141375	0.0144666	-0.000329035
229317	9.3696	0.0141911	0.0145088	-0.000317708
228951	4.9024	0.0142138	0.0145513	-0.000337517
228585	10.2592	0.0142503	0.0145939	-0.000343612
228218	16.8704	0.014272	0.0146367	-0.00036474
227852	21.4272	0.0143653	0.0146797	-0.000314491
227486	28.096	0.0144421	0.0147229	-0.000280843
227120	37.1328	0.0148084	0.0147663	4.20366e-05
226754	43.7056	0.0158276	0.0148099	0.00101771
226387	46.8416	0.0186178	0.0148537	0.00376412
226021	47.9744	0.0262001	0.0148977	0.0113024
225655	43.744	0.0462928	0.0149418	0.031351
225289	27.488	0.0964217	0.0149862	0.0814355
224923	6.0736	0.21759	0.0150307	0.202559
224556	-1.1264	0.494379	0.0150755	0.479304
224190	12.4032	1.09564	0.0151205	1.08052
223824	26.848	2.34953	0.0151656	2.33436
223458	19.6096	4.80773	0.015211	4.79252
223092	-3.3024	9.43447	0.0152566	9.41921
222725	-12.8256	17.6432	0.0153023	17.6279
222359	9.0048	31.4484	0.0153483	31.4331
221993	53.0688	53.5181	0.0153945	53.5027
221627	102.822	86.6209	0.0154409	86.6054
221260	157.139	133.694	0.0154875	133.678
220894	226.31	196.314	0.0155343	196.299
220528	314.97	274.302	0.0155813	274.286
220162	416.531	364.701	0.0156286	364.685
219796	517.773	461.081	0.015676	461.066
219429	601.254	554.199	0.0157237	554.183
219063	650.15	633.192	0.0157716	633.176
218697	661.952	687.52	0.0158197	687.504
218331	654.202	709.044	0.015868	709.028
217965	644.154	694.871	0.0159166	694.855
217598	622.784	646.427	0.0159654	646.411
217232	563.085	571.145	0.0160144	571.129
216866	459.034	479.081	0.0160636	479.065
216500	343.802	381.447	0.016113	381.431
216134	258.925	288.209	0.0161627	288.193
215767	212.915	206.741	0.0162126	206.725
215401	181.754	140.678	0.0162628	140.661
215035	145.242	90.814	0.0163132	90.7977
214669	107.552	55.6635	0.0163638	55.6471
214302	81.2928	32.3055	0.0164146	32.2891
213936	66.4448	17.8384	0.0164657	17.8219
213570	53.856	9.32899	0.016517	9.31247
213204	40.7744	4.63098	0.0165686	4.61441
212838	31.9424	2.18927	0.0166204	2.17265
212471	28.4992	0.981741	0.0166725	0.965068
212105	25.3632	0.426067	0.0167247	0.409342
211739	20.1088	0.180863	0.0167773	0.164086
211373	16.6976	0.0791143	0.0168301	0.0622842
211007	18.7904	0.0393673	0.0168831	0.0224842
210640	24.5952	0.0245778	0.0169364	0.00764138
210274	30.1056	0.0195369	0.0169899	0.00254697
209908	33.0112	0.0178279	0.0170437	0.000784121
209542	31.1552	0.0172657	0.0170978	0.00016794
209175	21.9264	0.0172048	0.0171521	5.26572e-05
208809	6.9248	0.017216	0.0172067	9.28227e-06
208443	-5.9392	0.0172137	0.0172615	-4.77913e-05
208077	-8.9856	0.0172279	0.0173166	-8.8724e-05
207711	-2.9952	0.0172428	0.017372	-0.000129204
207344	5.6448	0.0172768	0.0174276	-0.000150805
206978	14.5024	0.0172678	0.0174835	-0.000215689
206612	24.896	0.0173136	0.0175396	-0.000226053
206246	34.7072	0.0173616	0.0175961	-0.000234476
205880	36.8896	0.0173306	0.0176528	-0.000322192
205513	28.0832	0.0174148	0.0177097	-0.000294936
205147	15.2896	0.0174176	0.017767	-0.000349343
204781	10.0928	0.0174967	0.0178245	-0.000327839
204415	16.768	0.0175509	0.0178823	-0.000331434
204049	28.2304	0.0175911	0.0179404	-0.000349372
203682	33.2544	0.0176298	0.0179988	-0.000368993
203316	26.8416	0.017651	0.0180575	-0.000406448
202950	13.9456	0.0176783	0.0181164	-0.000438092
202584	4.7232	0.0177398	0.0181757	-0.000435832
202217	6.1056	0.0177002	0.0182352	-0.000534955
201851	16.5568	0.01777	0.018295	-0.000524988
201485	28.2304	0.0177802	0.0183551	-0.000574944
201119	34.0736	0.0178312	0.0184155	-0.000584349
200753	33.2992	0.0178995	0.0184763	-0.000576776
200386	31.3472	0.0179623	0.0185373	-0.000574971
200020	35.616	0.0180369	0.0185986	-0.000561722
199654	49.1648	0.0180961	0.0186602	-0.000564061
199288	64.9344	0.0181674	0.0187221	-0.00055474
198922	67.904	0.0181954	0.0187844	-0.000588941
198555	48.5888	0.0182342	0.0188469	-0.000612715
198189	17.7152	0.0183325	0.0189098	-0.0005773
197823	0.9728	0.0184605	0.018973	-0.000512494
197457	11.7248	0.0186586	0.0190364	-0.000377852
197091	33.4592	0.0191543	0.0191003	5.4071e-05
196724	38.0032	0.0203652	0.0191644	0.00120086
196358	20.3264	0.0235213	0.0192288	0.0042925
195992	3.1744	0.0322487	0.0192936	0.0129551
195626	4.9792	0.0551813	0.0193587	0.0358225
195259	16.3584	0.112271	0.0194242	0.0928473
194893	18.56	0.249382	0.01949	0.229892
194527	13.92	0.560998	0.0195561	0.541442
194161	21.0368	1.23488	0.0196225	1.21526
193795	42.4832	2.63326	0.0196893	2.61357
193428	57.3696	5.36133	0.0197564	5.34158
193062	52.096	10.4702	0.0198239	10.4504
192696	42.0096	19.4873	0.0198917	19.4674
192330	50.2336	34.5718	0.0199599	34.5518
191964	77.9648	58.5501	0.0200284	58.5301
191597	112.653	94.3068	0.0200972	94.2867
191231	156.851	144.838	0.0201665	144.818
190865	229.498	211.614	0.0202361	211.594
190499	333.504	294.182	0.020306	294.162
190133	442.906	389.115	0.0203763	389.094
189766	532.595	489.388	0.020447	489.368
189400	605.35	585.118	0.020518	585.097
189034	673.293	664.964	0.0205894	664.944
188668	723.571	718.147	0.0206612	718.127
188301	725.293	736.637	0.0207334	736.616
187935	671.616	718	0.0208059	717.979
187569	594.259	664.313	0.0208788	664.293
187203	527.181	583.75	0.0209521	583.729
186837	469.914	486.983	0.0210258	486.962
186470	400.019	385.629	0.0210999	385.608
186104	311.814	289.778	0.0211744	289.757
185738	226.381	206.742	0.0212493	206.72
185372	164.672	139.917	0.0213245	139.895
185006	126.451	89.8368	0.0214002	89.8154
184639	99.904	54.7711	0.0214763	54.7496
184273	80.0256	31.6186	0.0215527	31.597
183907	69.0048	17.3696	0.0216296	17.348
183541	65.4912	9.03837	0.0217069	9.01667
183175	62.9184	4.46627	0.0217846	4.44448
182808	57.0432	2.10358	0.0218628	2.08172
182442	49.0368	0.941827	0.0219413	0.919886
182076	41.4976	0.410228	0.0220203	0.388207
181710	36.0512	0.176607	0.0220997	0.154507
181343	33.7984	0.080428	0.0221795	0.0582485
180977	32.9792	0.0429992	0.0222598	0.0207394
180611	27.2896	0.0291778	0.0223405	0.00683731
180245	12.768	0.0244517	0.0224216	0.00203009
179879	-3.264	0.0229421	0.0225032	0.0004389
179512	-6.7968	0.022582	0.0225853	-3.29033e-06
179146	6.1696	0.0225026	0.0226677	-0.000165136
178780	22.0608	0.0225272	0.0227507	-0.000223504
178414	27.3024	0.0226082	0.0228341	-0.000225848
178048	25.0688	0.022714	0.0229179	-0.000203899
177681	30.3872	0.0227486	0.0230022	-0.000253653
177315	47.936	0.0228316	0.023087	-0.000255371
176949	62.4576	0.0228864	0.0231722	-0.000285834
176583	56.4672	0.0229837	0.023258	-0.000274252
176217	33.2288	0.0230223	0.0233442	-0.00032189
175850	15.328	0.0230884	0.0234308	-0.000342406
175484	19.5456	0.0231864	0.023518	-0.000331638
175118	38.1184	0.0232389	0.0236056	-0.000366765
174752	48.2816	0.0233552	0.0236938	-0.000338563
174385	38.3552	0.0234322	0.0237824	-0.00035025
174019	19.3728	0.0235355	0.0238716	-0.000336081
173653	9.3056	0.0236401	0.0239612	-0.000321099
173287	11.1488	0.0237396	0.0240513	-0.000311766
172921	12.6336	0.0238078	0.024142	-0.000334156
172554	6.2016	0.0238999	0.0242331	-0.000333246
172188	-0.2112	0.0239535	0.0243248	-0.00037134
171822	3.712	0.0240369	0.024417	-0.000380115
171456	13.1584	0.0241422	0.0245097	-0.000367515
171090	14.464	0.0241508	0.024603	-0.000452214
170723	6.7392	0.0241678	0.0246968	-0.000528977
170357	4.6464	0.0241896	0.0247911	-0.000601512
169991	16.9472	0.0242093	0.024886	-0.000676655
169625	30.8032	0.0242446	0.0249814	-0.000736844
169259	27.2064	0.0246826	0.0250774	-0.000394804
168892	6.7712	0.0247621	0.0251739	-0.000411778
168526	-11.2192	0.0248648	0.0252709	-0.000406169
168160	-13.216	0.0249134	0.0253686	-0.000455192
167794	-3.1872	0.0250411	0.0254668	-0.000425716
167427	10.0928	0.0252857	0.0255656	-0.000279898
167061	25.1264	0.0257482	0.0256649	8.33042e-05
166695	40.0832	0.027112	0.0257648	0.00134714
166329	45.2992	0.0308206	0.0258654	0.0049552
165963	35.168	0.0409147	0.0259665	0.0149483
165596	21.9584	0.0671647	0.0260682	0.0410965
165230	23.9488	0.132036	0.0261705	0.105866
164864	40.224	0.286923	0.0262734	0.260649
164498	50.464	0.63649	0.0263769	0.610113
164132	42.6944	1.38734	0.026481	1.36086
163765	29.4848	2.93453	0.0265857	2.90795
163399	26.8416	5.93211	0.0266911	5.90542
163033	32.1792	11.5063	0.0267971	11.4795
162667	32.1664	21.2739	0.0269037	21.247
162300	28.8512	37.4956	0.027011	37.4686
161934	43.8272	63.086	0.0271189	63.0589
161568	94.9824	100.953	0.0272274	100.926
161202	179.443	154.032	0.0273366	154.004
160836	281.824	223.572	0.0274465	223.545
160469	389.53	308.762	0.027557	308.735
160103	495.091	405.69	0.0276682	405.662
159737	592.448	506.841	0.0277801	506.814
159371	678.285	601.91	0.0278926	601.882
159005	751.206	679.421	0.0280059	679.393
158638	802.067	728.754	0.0281198	728.726
158272	811.373	742.371	0.0282344	742.343
157906	766.982	718.563	0.0283498	718.535
157540	682.022	660.175	0.0284658	660.147
157174	584.8	576.009	0.0285825	575.98
156807	490.765	477.09	0.0287	477.061
156441	396.403	375.074	0.0288182	375.045
156075	301.99	279.788	0.0289371	279.759
155709	224.614	198.153	0.0290568	198.124
155342	178.195	133.109	0.0291772	133.08
154976	151.546	84.8279	0.0292983	84.7986
154610	122.003	51.3303	0.0294202	51.3008
154244	86.4768	29.4082	0.0295429	29.3787
153878	62.4768	16.0362	0.0296664	16.0065
153511	57.5488	8.28435	0.0297906	8.25456
153145	55.0144	4.0669	0.0299156	4.03699
152779	39.1616	1.90604	0.0300414	1.876
152413	20.6784	0.852548	0.0301679	0.82238
152047	22.1696	0.374725	0.0302953	0.34443
151680	43.8272	0.166528	0.0304235	0.136105
151314	60.2816	0.0815596	0.0305525	0.0510071
150948	52.2688	0.0488748	0.0306824	0.0181924
150582	27.4496	0.0369594	0.030813	0.00614638
150216	7.9808	0.0329759	0.0309445	0.00203138
149849	2.4192	0.0317348	0.0310769	0.000657954
149483	2.3168	0.0314772	0.03121	0.000267156
149117	-0.0448	0.0315216	0.0313441	0.000177458
148751	-2.0608	0.031625	0.031479	0.00014602
148384	1.1136	0.0317326	0.0316148	0.000117765
148018	7.2576	0.040221	0.0317515	0.00846958
147652	9.6768	0.0401593	0.031889	0.00827029
147286	5.504	0.0395833	0.0320275	0.00755581
146920	-1.5616	0.0388338	0.0321668	0.00666701
146553	-5.2928	0.0377787	0.0323071	0.00547162
146187	-2.7584	0.0366747	0.0324483	0.0042264
145821	2.8352	0.0357033	0.0325904	0.00311293
145455	5.0816	0.03482	0.0327334	0.00208654
145089	1.4656	0.03418	0.0328774	0.00130261
144722	-2.8928	0.0337528	0.0330224	0.000730411
144356	-1.9584	0.0334791	0.0331683	0.000310858
143990	2.336	0.0333931	0.0333152	7.79937e-05
143624	2.6624	0.0333978	0.033463	-6.52063e-05
143258	-1.0752	0.033492	0.0336118	-0.000119874
142891	1.4272	0.0336064	0.0337617	-0.000155322
142525	16.4224	0.0337351	0.0339125	-0.000177461
142159	33.1008	0.0339668	0.0340644	-9.75574e-05
141793	33.4656	0.0340371	0.0342172	-0.000180106
141426	14.2912	0.0341743	0.0343711	-0.000196811
141060	-7.2768	0.0343159	0.0345261	-0.000210169
140694	-13.024	0.0343943	0.0346821	-0.000287772
140328	-2.7328	0.0344901	0.0348391	-0.000348991
139962	9.4336	0.0345584	0.0349973	-0.000438871
139595	12.6528	0.0346331	0.0351565	-0.000523351
139229	8.3776	0.0347656	0.0353168	-0.000551124
138863	4.5632	0.034868	0.0354781	-0.000610125
138497	6.6496	0.0349995	0.0356406	-0.000641109
138131	14.304	0.035198	0.0358043	-0.000606211
137764	22.528	0.0353526	0.035969	-0.000616428
137398	25.0048	0.0356925	0.0361349	-0.00044241
137032	20.4032	0.0363199	0.0363019	1.79888e-05
136666	14.72	0.0380642	0.0364701	0.00159406
136300	14.2592	0.0424622	0.0366395	0.00582271
135933	16.0896	0.0542457	0.03681	0.0174357
135567	11.3408	0.0846996	0.0369818	0.0477178
135201	-0.2368	0.159231	0.0371547	0.122076
134835	-5.4016	0.335981	0.0373289	0.298652
134468	4.8704	0.732638	0.0375043	0.695133
134102	25.2992	1.57968	0.0376809	1.542
133736	36.7872	3.31473	0.0378588	3.27688
133370	32.6848	6.65667	0.038038	6.61863
133004	27.2576	12.8341	0.0382184	12.7959
132637	37.1968	23.5929	0.0384001	23.5545
132271	62.176	41.3512	0.0385831	41.3126
131905	90.5024	69.1855	0.0387674	69.1467
131539	120.902	110.106	0.038953	110.067
131173	169.69	167.069	0.03914	167.03
130806	253.766	241.163	0.0393284	241.124
130440	370.835	331.229	0.039518	331.19
130074	499.315	432.814	0.0397091	432.774
129708	615.066	537.765	0.0399016	537.725
129342	705.197	635.123	0.0400954	635.083
128975	767.366	712.98	0.0402907	712.939
128609	799.936	760.556	0.0404874	760.516
128243	795.949	770.526	0.0406855	770.486
127877	748.39	741.736	0.0408851	741.695
127510	662.003	677.745	0.0410862	677.704
127144	557.882	588.114	0.0412888	588.073
126778	461.229	484.464	0.0414928	484.422
126412	381.702	378.807	0.0416984	378.765
126046	308.512	281.037	0.0419055	280.995
125679	228.301	197.968	0.0421142	197.926
125313	145.414	132.27	0.0423244	132.228
124947	78.6624	83.8441	0.0425362	83.8015
124581	38.784	50.4682	0.0427496	50.4255
124215	16.9984	28.7641	0.0429646	28.7212
123848	0.096	15.6085	0.0431813	15.5653
123482	-10.5728	8.02739	0.0433995	7.98399
123116	-4.6464	3.92745	0.0436195	3.88383
122750	15.3088	1.83909	0.0438411	1.79524
122384	29.568	0.826737	0.0440644	0.782673
122017	24.6336	0.370259	0.0442894	0.325969
121651	9.4912	0.172563	0.0445161	0.128047
121285	1.7088	0.0924257	0.0447446	0.0476811
120919	1.7536	0.0618214	0.0449748	0.0168466
120552	-6.0096	0.05079	0.0452069	0.00558312
120186	-25.1712	0.047191	0.0454407	0.00175033
119820	-35.6608	0.0461697	0.0456764	0.000493381
119454	-20.9792	0.046079	0.0459138	0.000165185
119088	3.8336	0.0461733	0.0461532	2.00966e-05
118721	8.1024	0.0463874	0.0463944	-7.01295e-06
118355	-12.416	0.0465281	0.0466375	-0.000109371
117989	-27.3536	0.0466736	0.0468825	-0.000208972
117623	-12.5888	0.0467771	0.0471295	-0.000352383
117257	15.584	0.0469475	0.0473784	-0.000430924
116890	22.5984	0.0471551	0.0476293	-0.00047422
116524	3.3536	0.0472997	0.0478822	-0.000582522
116158	-11.4752	0.0475445	0.0481372	-0.000592701
115792	0.9856	0.0477564	0.0483941	-0.000637747
115425	25.28	0.0479857	0.0486531	-0.000667439
115059	30.8608	0.0482934	0.0489142	-0.000620795
114693	12.6272	0.0485768	0.0491775	-0.000600693
114327	-7.36	0.0488774	0.0494428	-0.000565366
113961	-12.0128	0.0491883	0.0497103	-0.000522035
113594	-5.1072	0.0494988	0.04998	-0.000481221
113228	3.0464	0.0498012	0.0502518	-0.000450603
112862	11.0976	0.05013	0.0505259	-0.000395955
112496	16.128	0.0504073	0.0508023	-0.000395014
112130	8.992	0.0507019	0.0510809	-0.000378976
111763	-9.312	0.0510143	0.0513618	-0.00034751
111397	-17.8496	0.0512744	0.0516451	-0.000370672
111031	0.8064	0.0515677	0.0519307	-0.000362987
110665	31.8272	0.0518396	0.0522186	-0.00037899
110299	41.312	0.0521648	0.052509	-0.00034425
109932	19.9616	0.0523993	0.0528018	-0.000402552
109566	-4.2432	0.0527349	0.0530971	-0.000362153
109200	-4.6528	0.0529196	0.0533948	-0.000475146
108834	9.9072	0.0532247	0.053695	-0.000470381
108467	12.9152	0.0534409	0.0539978	-0.000556942
108101	-0.0704	0.0536157	0.0543032	-0.000687534
107735	-9.1328	0.0538586	0.0546111	-0.000752534
107369	-3.4496	0.0543175	0.0549217	-0.00060425
107003	4.032	0.0550742	0.055235	-0.000160781
106636	0.192	0.057087	0.0555509	0.00153612
106270	-8.6208	0.0622523	0.0558695	0.00638277
105904	-9.6256	0.0757799	0.0561909	0.019589
105538	-3.8976	0.112963	0.0565151	0.0564478
105172	-0.0768	0.197731	0.0568421	0.140889
104805	4.6784	0.397886	0.0571719	0.340714
104439	19.2576	0.844239	0.0575046	0.786735
104073	37.4208	1.7926	0.0578402	1.73476
103707	42.7712	3.725	0.0581788	3.66682
103341	33.984	7.42775	0.0585204	7.36923
102974	29.7792	14.236	0.0588649	14.1771
102608	42.0864	26.0292	0.0592125	25.97
102242	60.2048	45.3888	0.0595632	45.3292
101876	74.5152	75.5581	0.0599171	75.4982
101509	102.829	119.652	0.0602741	119.591
101143	174.195	180.651	0.0606343	180.59
100777	290.054	259.471	0.0609977	259.41
100411	420.224	354.599	0.0613644	354.537
100045	539.085	461.02	0.0617344	460.958
99678.4	647.392	569.927	0.0621078	569.865
99312.2	749.709	669.685	0.0624846	669.623
98946	827.091	747.944	0.0628648	747.881
98579.8	849.76	793.759	0.0632485	793.696
98213.6	811.84	800.017	0.0636357	799.953
97847.4	738.522	766.131	0.0640265	766.067
97481.2	658.33	696.389	0.0644209	696.324
97115	580.544	601.129	0.064819	601.064
96748.7	501.101	492.58	0.0652207	492.514
96382.5	417.414	383.123	0.0656262	383.057
96016.3	330.918	282.729	0.0660355	282.663
95650.1	243.648	198.107	0.0664487	198.041
95283.9	161.19	131.659	0.0668657	131.593
94917.7	94.624	83.0161	0.0672866	82.9488
94551.5	51.4112	49.7098	0.0677116	49.6421
94185.3	26.8928	28.1876	0.0681406	28.1195
93819.1	11.296	15.2249	0.0685737	15.1563
93452.8	2.4832	7.80012	0.0690109	7.73111
93086.6	4.1792	3.80944	0.0694523	3.73999
92720.4	14.24	1.78894	0.069898	1.71904
92354.2	19.8528	0.815489	0.0703479	0.745141
91988	13.952	0.379363	0.0708022	0.308561
91621.8	2.7776	0.191696	0.071261	0.120435
91255.6	-3.8464	0.116209	0.0717242	0.0444848
90889.4	-3.936	0.0876801	0.0721919	0.0154881
90523.2	-1.0688	0.0775891	0.0726643	0.00492485
90156.9	3.2576	0.0744604	0.0731412	0.00131915
89790.7	8.4032	0.073798	0.0736229	0.000175033
89424.5	9.952	0.0739294	0.0741094	-0.00018001
89058.3	3.7632	0.0743141	0.0746007	-0.000286613
88692.1	-6.3616	0.0747364	0.0750969	-0.000360536
88325.9	-12.3008	0.0752095	0.0755981	-0.000388553
87959.7	-12.32	0.0756158	0.0761043	-0.000488517
87593.5	-11.8464	0.0761247	0.0766156	-0.000490951
87227.3	-12.1984	0.0765598	0.0771321	-0.000572264
86861	-10.464	0.0770208	0.0776538	-0.000632964
86494.8	-7.7824	0.0773963	0.0781808	-0.000784554
86128.6	-12.0384	0.07783	0.0787132	-0.000883239
85762.4	-24.0192	0.0782577	0.0792511	-0.000993395
85396.2	-28.5376	0.0786755	0.0797945	-0.00111901
85030	-11.2064	0.079127	0.0803435	-0.00121645
84663.8	17.44	0.0796183	0.0808982	-0.00127989
84297.6	27.4176	0.0807646	0.0814586	-0.000694033
83931.4	2.976	0.0814738	0.0820249	-0.000551151
83565.1	-37.2096	0.082033	0.0825972	-0.000564178
83198.9	-59.6608	0.0825625	0.0831754	-0.000612885
82832.7	-50.2016	0.0831722	0.0837597	-0.000587524
82466.5	-22.6816	0.0837176	0.0843502	-0.000632641
82100.3	1.6	0.0842964	0.084947	-0.000650537
81734.1	13.3632	0.0848854	0.0855501	-0.00066471
81367.9	14.5472	0.0854634	0.0861597	-0.000696225
81001.7	7.9232	0.0861225	0.0867758	-0.000653272
80635.5	-5.2928	0.0867135	0.0873985	-0.000685052
80269.2	-19.968	0.0873731	0.088028	-0.00065489
79903	-25.8176	0.08796	0.0886643	-0.000704213
79536.8	-15.4624	0.0885908	0.0893075	-0.000716677
79170.6	6.08	0.0891808	0.0899577	-0.000776868
78804.4	22.5152	0.0898013	0.0906151	-0.000813744
78438.2	20.1728	0.090472	0.0912797	-0.00080771
78072	2.432	0.0911445	0.0919516	-0.000807091
77705.8	-12.4032	0.0918577	0.092631	-0.000773275
77339.6	-10.8032	0.0927962	0.0933179	-0.000521669
76973.3	0.4288	0.0941932	0.0940125	0.000180709
76607.1	3.4304	0.0968529	0.0947149	0.00213799
76240.9	-7.0784	0.103157	0.0954252	0.00773154
75874.7	-16.448	0.11899	0.0961435	0.0228462
75508.5	-9.6576	0.159004	0.0968699	0.0621336
75142.3	8.5696	0.25528	0.0976046	0.157675
74776.1	19.9872	0.480615	0.0983477	0.382268
74409.9	15.296	0.980317	0.0990993	0.881218
74043.7	3.3216	2.03543	0.0998596	1.93557
73677.5	-1.728	4.17223	0.100629	4.07161
73311.2	5.344	8.24217	0.101407	8.14076
72945	19.8784	15.6796	0.102194	15.5774
72578.8	36.128	28.4818	0.10299	28.3788
72212.6	49.8944	49.3638	0.103795	49.26
71846.4	66.3296	81.687	0.10461	81.5824
71480.2	99.9424	128.604	0.105435	128.499
71114	167.194	193.035	0.10627	192.928
70747.8	270.707	275.64	0.107114	275.533
70381.6	394.31	374.493	0.107968	374.385
70015.3	518.733	484.015	0.108833	483.906
69649.1	637.286	594.822	0.109708	594.712
69282.9	748.525	694.779	0.110594	694.668
68916.7	838.176	771.341	0.111491	771.23
68550.5	882.176	813.684	0.112398	813.572
68184.3	869.773	815.171	0.113317	815.057
67818.1	812.768	775.938	0.114247	775.823
67451.9	728	701.046	0.115188	700.931
67085.7	622.253	601.491	0.116142	601.375
66719.4	502.17	489.894	0.117107	489.777
66353.2	387.45	378.736	0.118084	378.618
65987	297.658	277.802	0.119073	277.683
65620.8	229.971	193.494	0.120075	193.374
65254.6	166.541	127.831	0.121089	127.71
64888.4	104.678	80.1346	0.122117	80.0125
64522.2	62.8096	47.7179	0.123157	47.5947
64156	50.1504	26.9189	0.124211	26.7947
63789.8	46.8992	14.4806	0.125279	14.3553
63423.5	29.248	7.40393	0.12636	7.27757
63057.3	3.5648	3.62627	0.127456	3.49882
62691.1	-2.624	1.72639	0.128565	1.59782
62324.9	18.6432	0.817511	0.12969	0.687821
61958.7	42.56	0.413251	0.130829	0.282423
61592.5	42.0736	0.241017	0.131983	0.109034
61226.3	19.1936	0.172542	0.133152	0.0393897
60860.1	-3.3152	0.147559	0.134337	0.0132221
60493.9	-9.6	0.139272	0.135538	0.00373413
60127.6	-0.8768	0.13746	0.136755	0.000704377
59761.4	13.3696	0.137693	0.137989	-0.000296042
59395.2	22.7072	0.138653	0.139239	-0.00058604
59029	19.8016	0.139835	0.140507	-0.000671958
58662.8	9.4336	0.141037	0.141792	-0.000754132
58296.6	9.3888	0.142341	0.143094	-0.000753501
57930.4	29.2992	0.143576	0.144415	-0.000838506
57564.2	50.6304	0.144924	0.145754	-0.00082936
57198	43.8912	0.146192	0.147111	-0.000919663
56831.7	9.5296	0.147534	0.148488	-0.000953779
56465.5	-15.2192	0.14891	0.149884	-0.000974216
56099.3	-0.8384	0.150333	0.1513	-0.000966601
55733.1	36.2368	0.151801	0.152736	-0.000935203
55366.9	57.6064	0.153271	0.154192	-0.000921573
55000.7	52.448	0.154767	0.15567	-0.000902934
54634.5	43.0528	0.156286	0.157169	-0.000882927
54268.3	45.3824	0.157784	0.158689	-0.000905408
53902.1	45.5808	0.15934	0.160232	-0.000892477
53535.8	26.048	0.160873	0.161797	-0.000924799
53169.6	-3.232	0.162375	0.163386	-0.00101119
52803.4	-16.9216	0.164051	0.164998	-0.000946707
52437.2	-8.8832	0.165636	0.166633	-0.000997269
52071	2.6304	0.167328	0.168294	-0.000965387
51704.8	2.0224	0.169038	0.169979	-0.000941258
51338.6	-7.6544	0.170805	0.17169	-0.000884809
50972.4	-17.1584	0.172534	0.173426	-0.000891935
50606.2	-24.2496	0.174321	0.175189	-0.000868263
50240	-27.3472	0.176065	0.176979	-0.000914889
49873.7	-18.3552	0.177853	0.178797	-0.000944291
49507.5	5.5808	0.179635	0.180643	-0.00100781
49141.3	29.6512	0.181543	0.182517	-0.00097472
48775.1	32.8	0.183507	0.184421	-0.00091391
48408.9	12.3776	0.185421	0.186355	-0.000934191
48042.7	-11.8592	0.187471	0.188319	-0.000848369
47676.5	-20.7104	0.189609	0.190315	-0.000706399
47310.3	-15.5328	0.191914	0.192343	-0.000428806
46944.1	-12.704	0.194817	0.194403	0.000414178
46577.8	-22.656	0.199239	0.196496	0.00274271
46211.6	-38.2528	0.207919	0.198623	0.00929563
45845.4	-42.9952	0.227581	0.200785	0.0267958
45479.2	-29.216	0.27486	0.202983	0.071877
45113	-7.9808	0.386208	0.205216	0.180992
44746.8	1.4272	0.643643	0.207487	0.436156
44380.6	-6.8416	1.20922	0.209796	0.999422
44014.4	-17.7984	2.39513	0.212143	2.18299
43648.2	-12.5376	4.78068	0.21453	4.56615
43281.9	6.2272	9.29582	0.216958	9.07886
42915.7	18.9632	17.4946	0.219427	17.2751
42549.5	20.4864	31.5166	0.221938	31.2947
42183.3	32.1152	54.2406	0.224493	54.0161
41817.1	75.0656	89.1745	0.227092	88.9474
41450.9	144.499	139.53	0.229737	139.301
41084.7	225.062	208.169	0.232427	207.936
40718.5	321.523	295.478	0.235166	295.243
40352.3	450.451	399.063	0.237953	398.825
39986	600.339	512.7	0.24079	512.459
39619.8	726.138	626.331	0.243678	626.088
39253.6	797.414	727.208	0.246618	726.962
38887.4	832.224	802.51	0.249612	802.261
38521.2	861.613	841.475	0.25266	841.222
38155	874.598	837.929	0.255765	837.673
37788.8	829.376	792.774	0.258927	792.515
37422.6	719.168	711.918	0.262149	711.656
37056.4	594.349	607.111	0.26543	606.846
36690.1	503.072	491.471	0.268774	491.202
36323.9	434.112	377.662	0.272182	377.39
35957.7	344.672	275.347	0.275654	275.071
35591.5	230.829	190.657	0.279193	190.378
35225.3	137.696	125.237	0.282801	124.954
34859.1	97.6576	78.0893	0.28648	77.8028
34492.9	88.4416	46.286	0.29023	45.9958
34126.7	68.4608	26.0284	0.294055	25.7343
33760.5	32.7872	14.0017	0.297955	13.7038
33394.2	10.6368	7.20705	0.301934	6.90511
33028	16.6272	3.60601	0.305993	3.30002
32661.8	29.7216	1.80847	0.310135	1.49834
32295.6	24.3328	0.955478	0.31436	0.641118
31929.4	2.6304	0.580542	0.318673	0.261869
31563.2	-15.1168	0.423413	0.323076	0.100337
31197	-19.8848	0.363467	0.32757	0.0358978
30830.8	-20.3648	0.343797	0.332158	0.0116385
30464.6	-23.0976	0.339821	0.336844	0.00297755
30098.3	-23.1232	0.341796	0.341629	0.000167089
29732.1	-12.5248	0.345863	0.346517	-0.000654227
29365.9	7.2832	0.350657	0.35151	-0.000853764
28999.7	24.1792	0.355788	0.356613	-0.000824968
28633.5	26.6816	0.361009	0.361827	-0.000818097
28267.3	14.4896	0.366378	0.367156	-0.000777381
27901.1	-1.7984	0.37188	0.372604	-0.000723852
27534.9	-11.6544	0.377435	0.378173	-0.000738381
27168.7	-13.2224	0.383072	0.383869	-0.000797263
26802.5	-11.904	0.388854	0.389694	-0.000840565
26436.2	-9.6128	0.39479	0.395653	-0.000862737
26070	-1.6384	0.400855	0.401749	-0.000894936
25703.8	12.1728	0.407095	0.407988	-0.000893216
25337.6	19.744	0.413394	0.414373	-0.000978472
24971.4	9.4528	0.419868	0.420908	-0.0010405
24605.2	-10.848	0.426536	0.4276	-0.00106347
24239	-19.2192	0.433323	0.434452	-0.0011286
23872.8	-7.8784	0.440242	0.44147	-0.00122826
23506.6	5.1072	0.447317	0.448659	-0.00134202
23140.3	0.0896	0.454478	0.456026	-0.00154827
22774.1	-16.48	0.461793	0.463575	-0.00178237
22407.9	-21.4144	0.469265	0.471313	-0.002048
22041.7	-8.1856	0.476884	0.479247	-0.00236306
21675.5	4.4288	0.484554	0.487382	-0.00282747
21309.3	0.3904	0.492486	0.495726	-0.00323979
20943.1	-11.6608	0.500629	0.504286	-0.00365688
20576.9	-13.3184	0.509088	0.51307	-0.00398174
20210.7	-3.9936	0.524807	0.522085	0.00272266
19844.4	0.4992	0.533895	0.531339	0.00255597
19478.2	-6.7648	0.543091	0.540842	0.00224901
19112	-14.4256	0.552382	0.550601	0.00178136
18745.8	-11.6416	0.561833	0.560627	0.00120591
18379.6	-4.3712	0.571563	0.570929	0.000634103
18013.4	-5.216	0.581672	0.581518	0.000153899
17647.2	-13.4464	0.592152	0.592403	-0.000251512
17281	-14.9504	0.603348	0.603597	-0.000249618
16914.8	-0.8256	0.615581	0.615111	0.000470282
16548.5	21.1072	0.63004	0.626957	0.00308225
16182.3	34.6944	0.649658	0.639149	0.0105087
15816.1	31.456	0.682207	0.651699	0.0305081
15449.9	17.6064	0.746394	0.664623	0.0817713
15083.7	8.4736	0.883105	0.677934	0.205171
14717.5	15.552	1.18375	0.691649	0.492101
14351.3	35.7632	1.82813	0.705784	1.12235
13985.1	51.9808	3.16016	0.720356	2.43981
13618.9	48.4928	5.81359	0.735384	5.07821
13252.6	29.1392	10.7988	0.750886	10.048
12886.4	12.0768	19.7917	0.766884	19.0248
12520.2	15.4944	35.0754	0.783398	34.292
12154	45.6384	59.6917	0.80045	58.8913
11787.8	100.39	97.2937	0.818065	96.4756
11421.6	178.221	151.143	0.836267	150.307
11055.4	279.046	224.039	0.855082	223.184
10689.2	399.264	316.082	0.87454	315.208
10323	530.854	424.404	0.894668	423.51
9956.75	664.467	542.135	0.915498	541.219
9590.54	789.67	658.552	0.937063	657.614
9224.33	894.362	760.313	0.959399	759.354
8858.11	968.448	834.346	0.982542	833.364
8491.9	1007.79	869.971	1.00653	868.964
8125.69	1009.62	861.49	1.03141	860.459
7759.48	966.426	810.562	1.05722	809.504
7393.27	873.805	723.913	1.08401	722.829
7027.06	747.117	614.021	1.11183	612.909
6660.85	619.456	494.462	1.14073	493.321
6294.64	513.325	378.068	1.17077	376.897
5928.43	419.411	274.374	1.20202	273.172
5562.22	314.79	189.252	1.23452	188.017
5196	200.659	123.99	1.26837	122.722
4829.79	108.838	77.2985	1.30362	75.9949
4463.58	65.7664	46.0241	1.34036	44.6838
4097.37	61.0304	26.2437	1.37867	24.865
3731.16	61.2992	14.5901	1.41865	13.1714
3364.95	48.5312	8.06226	1.46039	6.60188
2998.74	32.2176	4.64258	1.50399	3.13859
2632.53	26.176	2.96683	1.54957	1.41726
2266.32	27.4688	2.19996	1.59725	0.602704
1900.11	23.9296	1.89114	1.64716	0.243979
1533.9	12.5696	1.79114	1.69945	0.0916938
1167.68	0.6592	1.78531	1.75425	0.0310587
801.474	-7.1488	1.81978	1.81174	0.00803905
435.263	-12.384	1.8714	1.87211	-0.000706137
69.0517	-14.2336	1.93153	1.93553	-0.00399104
-297.159	-6.7584	1.99697	2.00222	-0.00524893
-663.37	10.4384	2.0664	2.0724	-0.00600187
-1029.58	25.0688	2.14421	2.14634	-0.00212995
-1395.79	22.7328	2.22212	2.22429	-0.00216791
-1762	3.4624	2.3044	2.30655	-0.0021474
-2128.21	-17.44	2.39115	2.39344	-0.00228957
-2494.42	-23.4688	2.48298	2.48533	-0.00234422
-2860.64	-14.5344	2.58025	2.58259	-0.0023351
-3226.85	-2.3744	2.68332	2.68565	-0.00233423
-3593.06	4.9664	2.7926	2.79499	-0.00238355
-3959.27	7.0848	2.90872	2.91111	-0.00238898
-4325.48	7.8784	3.03224	3.0346	-0.0023534
-4691.69	6.688	3.16364	3.16608	-0.00243366
-5057.9	0.3008	3.3036	3.30625	-0.00265551
-5424.11	-8.3712	3.45327	3.4559	-0.00263627
-5790.32	-9.2672	3.61327	3.6159	-0.00263139
-6156.53	4.2496	3.7845	3.78721	-0.00271745
-6522.75	25.824	3.96829	3.97093	-0.00264002
-6888.96	41.0432	4.16568	4.16827	-0.00259286
-7255.17	41.2672	4.37791	4.38061	-0.00270536
-7621.38	29.6576	4.60657	4.6095	-0.00292718
-7987.59	14.4704	4.85359	4.85669	-0.00309351
-8353.8	1.1264	5.12095	5.12416	-0.00321305
-8720.01	-7.5584	5.4106	5.4142	-0.00359283
-9086.22	-8.9408	5.72529	5.72938	-0.00408594
-9452.43	-3.1168	6.06808	6.07267	-0.00459299
-9818.64	3.8528	6.4429	6.4475	-0.00459615
-10184.9	5.8816	6.85276	6.8578	-0.00503702
-10551.1	4.8576	7.30284	7.30815	-0.00531013
-10917.3	6.7456	7.79835	7.80388	-0.00553122
-11283.5	10.9888	8.34524	8.35123	-0.00598931
-11649.7	10.7648	8.95147	8.95752	-0.00605141
-12015.9	5.664	9.62507	9.63142	-0.00635221
-12382.1	5.0368	10.3771	10.3832	-0.00609
-12748.3	13.3312	11.2196	11.2253	-0.00574505
-13114.5	20.6464	12.1683	12.1726	-0.00430267
-13480.8	17.4592	13.2441	13.2434	0.000656015
-13847	11.5584	14.4769	14.4613	0.0155972
-14213.2	19.2192	15.9167	15.8575	0.059248
-14579.4	35.136	17.6622	17.477	0.185163
-14945.6	32.8896	19.9161	19.3904	0.525657
-15311.8	4.544	23.137	21.717	1.41996
-15678	-18.5984	28.3124	24.6677	3.64475
-16044.2	-6.72	37.5464	28.6182	8.92821
-16410.4	29.7536	55.2095	34.2229	20.9867
-16776.7	55.8656	89.413	42.5713	46.8417
-17142.9	70.3104	155.548	55.3694	100.179
-17509.1	119.648	278.743	75.0938	203.65
-17875.3	255.654	498.957	105.028	393.929
-18241.5	515.469	875.441	149.06	726.381
-18607.7	979.718	1481.66	211.124	1270.53
-18973.9	1831.89	2410.78	294.265	2116.52
-19340.1	3298.66	3745.5	399.41	3346.09
-19706.3	5482.81	5547.82	524.109	5023.72
-20072.5	8248.74	7826.3	661.539	7164.76
-20438.8	11280.6	10496.1	800.019	9696.1
-20805	14244.8	13380.9	923.211	12457.7
-21171.2	16889.8	16201.1	1011.75	15189.3
-21537.4	19017.4	18623.7	1047.94	17575.7
-21903.6	20423.9	20317.9	1023.4	19294.5
-22269.8	20921.6	21050.4	943.889	20106.5
-22636	20432.5	20697.1	825.914	19871.2
-23002.2	19047.6	19329.2	689.009	18640.2
-23368.4	16991.3	17141.8	550.3	16591.5
-23734.7	14530.3	14434.4	422.424	14012
-24100.9	11907.6	11543.4	313.133	11230.2
-24467.1	9326.9	8768.39	225.67	8542.72
-24833.3	6958.78	6326.3	159.672	6166.63
-25199.5	4933.08	4337.42	112.409	4225.01
-25565.7	3320.34	2829.21	80.0331	2749.17
-25931.9	2125.17	1754.4	58.5925	1695.81
-26298.1	1301.23	1040.16	44.6598	995.501
-26664.3	775.098	589.656	35.5972	554.059
-27030.6	463.84	322.477	29.558	292.919
-27396.8	286.381	172.654	25.3464	147.307
-27763	177.683	92.3263	22.2365	70.0898
-28129.2	102.17	51.7008	19.8083	31.8925
-28495.4	51.552	31.5609	17.8255	13.7354
-28861.6	38.4	21.785	16.1551	5.62991
-29227.8	40.8512	16.9213	14.7194	2.20191
-29594	35.232	14.2846	13.4694	0.815245
-29960.2	16.448	12.6656	12.3718	0.293807
-30326.5	-2.9248	11.5055	11.4019	0.103565
-30692.7	-9.952	10.5793	10.5405	0.0387784
-31058.9	-5.8816	9.78957	9.77208	0.0174961
-31425.1	0.4736	9.09507	9.08379	0.0112767
-31791.3	6.7456	8.47451	8.465	0.00951218
-32157.5	15.8464	7.91566	7.90673	0.00893125
-32523.7	24.6016	7.41044	7.40142	0.00902221
-32889.9	25.0624	6.95147	6.94263	0.00883711
-33256.1	18.976	6.53353	6.52487	0.00865375
-33622.4	20.576	6.15139	6.14343	0.00795394
-33988.6	38.8416	5.80163	5.79425	0.00737786
-34354.8	63.2	5.48067	5.47382	0.00685806
-34721	61.0688	5.1852	5.17908	0.00612754
-35087.2	41.1904	4.9128	4.90737	0.00543209
-35453.4	17.3824	4.66148	4.65638	0.00510286
-35819.6	3.3216	4.42877	4.42406	0.00471282
-36185.8	2.4256	4.2128	4.20861	0.00419333
-36552	11.8976	4.01235	4.00844	0.00390626
-36918.3	26.6048	3.82598	3.82216	0.00382278
-37284.5	35.5008	3.65223	3.64851	0.00372363
-37650.7	26.0416	3.48994	3.48637	0.00356644
-38016.9	0.5184	3.33827	3.33477	0.00350402
-38383.1	-18.6048	3.19598	3.1928	0.00317715
-38749.3	-10.8864	3.06288	3.05968	0.00319752
-39115.5	16.0832	2.9376	2.93468	0.00291565
-39481.7	35.1168	2.82001	2.81716	0.00284275
-39847.9	31.6928	2.70931	2.70654	0.00276589
-40214.2	18.4064	2.60496	2.60229	0.00266939
-40580.4	11.4624	2.50671	2.50393	0.00278119
-40946.6	8.3968	2.41412	2.41102	0.00310015
-41312.8	-1.4272	2.32655	2.32318	0.00337163
-41679	-13.216	2.24382	2.24004	0.00378587
-42045.2	-9.9712	2.16567	2.16127	0.00439824
-42411.4	10.6112	2.09178	2.08657	0.00521489
-42777.6	27.9488	2.02168	2.01567	0.00600944
-43143.8	24.3008	1.95598	1.94831	0.00766882
-43510	8.4928	1.89159	1.88427	0.00731946
-43876.3	3.4944	1.84046	1.82333	0.0171302
-44242.5	15.8592	1.80777	1.76529	0.0424887
-44608.7	28.4736	1.81639	1.70997	0.106421
-44974.9	23.648	1.91562	1.6572	0.258415
-45341.1	3.8656	2.21489	1.60684	0.608046
-45707.3	-13.824	2.92516	1.55873	1.36643
-46073.5	-17.2544	4.4458	1.51275	2.93305
-46439.7	-8.512	7.50021	1.46877	6.03144
-46805.9	1.9264	13.2215	1.42668	11.7948
-47172.2	6.7648	23.4583	1.38636	22.072
-47538.4	9.9648	40.668	1.34773	39.3202
-47904.6	26.0352	68.0486	1.31069	66.7379
-48270.8	71.2576	109.308	1.27515	108.033
-48637	151.251	167.559	1.24104	166.318
-49003.2	258.061	245.201	1.20828	243.993
-49369.4	380.685	341.619	1.17679	340.442
-49735.6	513.536	453.016	1.14652	451.87
-50101.8	650.323	571.517	1.1174	570.399
-50468.1	774.042	685.667	1.08937	684.578
-50834.3	862.688	781.782	1.06238	780.72
-51200.5	906.17	847.231	1.03638	846.194
-51566.7	910.342	872.366	1.01133	871.354
-51932.9	882.291	853.032	0.987169	852.045
-52299.1	820.339	792.491	0.963863	791.527
-52665.3	725.338	698.829	0.941373	697.888
-53031.5	614.093	585.208	0.91966	584.288
-53397.7	509.69	465.227	0.898688	464.329
-53764	419.418	351.131	0.878425	350.253
-54130.2	332.966	251.478	0.858839	250.619
-54496.4	244.736	171.147	0.8399	170.307
-54862.6	167.008	110.563	0.82158	109.741
-55228.8	113.926	67.8932	0.803853	67.0893
-55595	81.184	39.7315	0.786692	38.9448
-55961.2	52.4672	22.163	0.770075	21.3929
-56327.4	22.368	11.9438	0.753978	11.1898
-56693.6	0.8256	6.27665	0.73838	5.53827
-57059.9	-5.9072	3.32451	0.723261	2.60125
-57426.1	-6.2784	1.87029	0.708601	1.16169
-57792.3	-9.3952	1.1842	0.694382	0.489821
-58158.5	-10.3488	0.878953	0.680586	0.198368
-58524.7	-0.0064	0.743735	0.667197	0.0765379
-58890.9	15.808	0.683024	0.654199	0.0288249
-59257.1	20.0192	0.652813	0.641577	0.0112361
-59623.3	8.4096	0.634251	0.629316	0.00493489
-59989.5	-2.1632	0.620279	0.617403	0.00287584
-60355.8	4.2688	0.607952	0.605825	0.00212681
-60722	21.0688	0.596508	0.59457	0.00193878
-61088.2	28.5056	0.585416	0.583624	0.00179204
-61454.4	20.6656	0.574589	0.572979	0.00160987
-61820.6	11.6672	0.564197	0.562621	0.00157568
-62186.8	14.0864	0.554187	0.552542	0.00164478
-62553	21.9648	0.544408	0.542731	0.0016772
-62919.2	21.2224	0.534936	0.533179	0.00175686
-63285.4	10.272	0.525719	0.523877	0.00184185
-63651.7	0.9472	0.516906	0.514816	0.00209076
-64017.9	0.4608	0.508252	0.505987	0.00226425
-64384.1	0.7424	0.499756	0.497384	0.00237168
-64750.3	-6.6816	0.487097	0.488998	-0.00190115
-65116.5	-18.4064	0.476504	0.480823	-0.00431881
-65482.7	-21.12	0.468796	0.47285	-0.00405442
-65848.9	-8.2624	0.461632	0.465074	-0.00344293
-66215.1	11.3856	0.454671	0.457489	-0.00281787
-66581.3	23.0144	0.448055	0.450087	-0.00203158
-66947.5	20.9344	0.44151	0.442863	-0.00135289
-67313.8	12.8704	0.435113	0.435812	-0.000699053
-67680	10.2912	0.428881	0.428928	-4.65287e-05
-68046.2	16.2624	0.422539	0.422205	0.000333254
-68412.4	22.5984	0.416203	0.41564	0.000563081
-68778.6	18.8928	0.409997	0.409226	0.000771013
-69144.8	5.0944	0.403819	0.402959	0.000860261
-69511	-6.272	0.397755	0.396835	0.000919883
-69877.2	-2.496	0.391725	0.39085	0.000875383
-70243.4	14.1952	0.385841	0.384999	0.000841726
-70609.7	27.296	0.380087	0.379278	0.000808933
-70975.9	24.6912	0.374479	0.373684	0.00079539
-71342.1	13.7152	0.368984	0.368213	0.00077111
-71708.3	11.7376	0.363616	0.36286	0.000755346
-72074.5	22.5728	0.358475	0.357624	0.000851285
-72440.7	29.824	0.353464	0.3525	0.000963567
-72806.9	18.4896	0.348966	0.347486	0.00148061
-73173.1	-3.0912	0.345459	0.342577	0.00288177
-73539.3	-11.776	0.344673	0.337772	0.00690096
-73905.6	1.4528	0.35077	0.333067	0.0177028
-74271.8	20.9792	0.37412	0.32846	0.0456594
-74638	28.448	0.43986	0.323948	0.115912
-75004.2	26.1056	0.601006	0.319528	0.281478
-75370.4	29.152	0.974812	0.315198	0.659614
-75736.6	40.4992	1.78534	0.310955	1.47438
-76102.8	46.3168	3.45261	0.306797	3.14581
-76469	37.024	6.73038	0.302722	6.42766
-76835.2	23.4624	12.7875	0.298728	12.4888
-77201.5	23.6864	23.5115	0.294812	23.2167
-77567.7	41.6192	41.3763	0.290973	41.0853
-77933.9	70.5856	69.5584	0.287208	69.2712
-78300.1	113.696	111.664	0.283516	111.38
-78666.3	186.81	170.604	0.279894	170.325
-79032.5	297.286	248.46	0.276341	248.184
-79398.7	430.266	344.226	0.272856	343.954
-79764.9	563.347	453.716	0.269436	453.447
-80131.1	687.014	568.772	0.26608	568.506
-80497.4	800.467	677.948	0.262786	677.685
-80863.6	891.91	767.862	0.259553	767.602
-81229.8	937.382	826.577	0.256379	826.32
-81596	923.821	845.347	0.253264	845.094
-81962.2	863.866	820.985	0.250204	820.735
-82328.4	781.626	757.479	0.2472	757.232
-82694.6	689.594	663.332	0.244249	663.088
-83060.8	586.496	551.589	0.241351	551.347
-83427	473.274	435.378	0.238504	435.139
-83793.3	361.107	326.212	0.235707	325.976
-84159.5	263.373	231.861	0.23296	231.628
-84525.7	186.938	156.543	0.230259	156.313
-84891.9	132.39	100.247	0.227606	100.019
-85258.1	95.8016	60.9409	0.224998	60.7159
-85624.3	67.8144	35.2183	0.222435	34.9959
-85990.5	39.0336	19.3052	0.219915	19.0852
-86356.7	11.8848	10.1277	0.217438	9.91028
-86722.9	0.6528	5.08349	0.215002	4.86849
-87089.2	11.744	2.48198	0.212607	2.26938
-87455.4	28.7232	1.21579	0.210252	1.00554
-87821.6	27.7376	0.628505	0.207936	0.420569
-88187.8	7.4624	0.374393	0.205658	0.168735
-88554	-8.4608	0.26772	0.203417	0.0643033
-88920.2	-2.8288	0.225014	0.201212	0.0238014
-89286.4	13.056	0.207972	0.199044	0.00892899
-89652.6	17.2032	0.200554	0.196909	0.00364436
-90018.8	8.0192	0.196722	0.19481	0.00191215
-90385	3.488	0.194123	0.192743	0.00137961
-90751.3	11.7824	0.191804	0.190709	0.00109502
-91117.5	19.5712	0.189737	0.188708	0.00102911
-91483.7	14.5664	0.187677	0.186737	0.000939743
-91849.9	6.4064	0.185663	0.184797	0.000865901
-92216.1	12.48	0.183731	0.182888	0.000843118
-92582.3	30.5472	0.18182	0.181008	0.000812374
-92948.5	40.3264	0.1799	0.179156	0.000743684
-93314.7	31.5712	0.178017	0.177333	0.000684117
-93680.9	16.6656	0.176195	0.175538	0.000657657
-94047.2	10.7072	0.174466	0.173769	0.000696915
-94413.4	10.9184	0.172785	0.172027	0.000758026
-94779.6	5.6256	0.171107	0.170312	0.000795546
-95145.8	-4.224	0.169452	0.168622	0.000830547
-95512	-5.4976	0.167925	0.166956	0.000968207
-95878.2	6.1376	0.166251	0.165316	0.000934999
-96244.4	17.6384	0.164738	0.163699	0.00103854
-96610.6	15.616	0.163195	0.162106	0.00108849
-96976.8	3.5968	0.161593	0.160537	0.00105636
-97343.1	-4.4416	0.160032	0.158989	0.00104225
-97709.3	-2.8032	0.158429	0.157465	0.00096416
-98075.5	1.056	0.156865	0.155962	0.000903855
-98441.7	-1.4336	0.155311	0.15448	0.000831349
-98807.9	-9.7472	0.153723	0.153019	0.000703841
-99174.1	-16.2496	0.15221	0.151579	0.000631082
-99540.3	-13.7024	0.150736	0.15016	0.000576777
-99906.5	-0.3008	0.149268	0.14876	0.000508488
-100273	17.6128	0.14781	0.147379	0.000431237
-100639	27.36	0.146426	0.146018	0.000407647
-101005	20.1152	0.145043	0.144675	0.000367647
-101371	2.9952	0.143652	0.143351	0.000300824
-101738	-5.0752	0.142312	0.142045	0.00026655
-102104	5.5808	0.141066	0.140757	0.000309506
-102470	22.9632	0.140002	0.139486	0.000515577
-102836	28.0704	0.13925	0.138232	0.0010179
-103202	19.2512	0.139554	0.136996	0.00255855
-103569	12.1856	0.142684	0.135775	0.00690857
-103935	16.192	0.153296	0.134571	0.0187249
-104301	22.5664	0.182694	0.133383	0.0493114
-104667	22.8736	0.257699	0.13221	0.125489
-105033	23.9296	0.435292	0.131053	0.304239
-105400	38.2528	0.839626	0.129911	0.709715
-105766	57.9904	1.70663	0.128784	1.57785
-106132	58.688	3.47533	0.127672	3.34766
-106498	32.4544	6.92644	0.126573	6.79987
-106865	4.4864	13.2593	0.125489	13.1338
-107231	6.6176	24.3942	0.124419	24.2698
-107597	42.1632	42.8138	0.123363	42.6905
-107963	88.9856	71.6649	0.122319	71.5426
-108329	134.323	114.448	0.121289	114.326
-108696	192.269	173.876	0.120272	173.756
-109062	283.514	251.727	0.119268	251.608
-109428	408.806	346.636	0.118276	346.517
-109794	549.568	454.067	0.117297	453.949
-110160	685.971	565.632	0.116329	565.515
-110527	803.93	669.93	0.115374	669.815
-110893	889.235	753.905	0.11443	753.791
-111259	928.083	806.304	0.113498	806.19
-111625	917.03	819.232	0.112577	819.12
-111991	865.171	790.393	0.111668	790.281
-112358	783.68	724.416	0.110769	724.306
-112724	679.891	630.144	0.109881	630.034
-113090	563.814	520.46	0.109004	520.351
-113456	450.899	408.01	0.108137	407.902
-113823	350.624	303.606	0.10728	303.498
-114189	258.63	214.28	0.106434	214.173
-114555	169.901	143.647	0.105598	143.541
-114921	95.5392	91.3116	0.104771	91.2068
-115287	53.4336	55.0818	0.103954	54.9778
-115654	41.6896	31.5672	0.103147	31.464
-116020	35.3728	17.1368	0.102349	17.0345
-116386	16.9728	8.88409	0.10156	8.78253
-116752	-1.088	4.38352	0.10078	4.28274
-117118	3.4816	2.08155	0.100009	1.98154
-117485	27.8912	0.970717	0.0992474	0.87147
-117851	44.6208	0.460199	0.0984941	0.361705
-118217	37.2608	0.241846	0.0977494	0.144097
-118583	20.0576	0.151592	0.097013	0.0545791
-118950	14.912	0.116361	0.096285	0.0200761
-119316	21.4912	0.103053	0.0955651	0.00748836
-119682	21.2672	0.097904	0.0948533	0.00305076
-120048	9.7856	0.0956578	0.0941493	0.00150842
-120414	0.832	0.094474	0.0934532	0.00102071
-120781	7.3472	0.0935962	0.0927648	0.000831391
-121147	24.5888	0.0928252	0.092084	0.000741203
-121513	37.8112	0.0920233	0.0914106	0.000612682
-121879	38.4256	0.0912625	0.0907446	0.000517953
-122245	27.3984	0.0905232	0.0900858	0.00043739
-122612	10.144	0.0897516	0.0894342	0.000317425
-122978	-5.1072	0.0890322	0.0887896	0.000242575
-123344	-8.9536	0.0883339	0.088152	0.000181961
-123710	0.8768	0.0877285	0.0875212	0.000207341
-124076	14.9632	0.0870861	0.0868971	0.000189008
-124443	23.0592	0.0864962	0.0862797	0.000216458
-124809	27.04	0.0859282	0.0856689	0.000259344
-125175	34.4448	0.0853545	0.0850645	0.000290021
-125541	40.576	0.0848449	0.0844665	0.000378439
-125908	30.0544	0.0843111	0.0838748	0.000436311
-126274	1.408	0.0838189	0.0832893	0.000529598
-126640	-21.7536	0.0832793	0.0827098	0.000569452
-127006	-15.5712	0.0827741	0.0821365	0.000637598
-127372	13.6448	0.0822378	0.081569	0.000668819
-127739	36.3264	0.0817241	0.0810074	0.000716681
-128105	36.0704	0.0812434	0.0804516	0.000791845
-128471	25.4528	0.0806599	0.0799015	0.000758439
-128837	23.7568	0.0792216	0.079357	-0.000135379
-129203	31.0592	0.0787734	0.0788181	-4.4624e-05
-129570	34.1952	0.0781962	0.0782846	-8.83485e-05
-129936	30.0416	0.0776741	0.0777565	-8.24342e-05
-130302	30.1952	0.0772154	0.0772338	-1.83697e-05
-130668	42.5856	0.076641	0.0767163	-7.52877e-05
-131034	58.9184	0.07621	0.076204	6.05192e-06
-131401	63.6864	0.0757491	0.0756968	5.23349e-05
-131767	49.5104	0.0752615	0.0751946	6.68582e-05
-132133	21.3632	0.0748306	0.0746974	0.000133212
-132499	-7.6096	0.0745546	0.0742052	0.000349446
-132866	-22.6624	0.0747167	0.0737178	0.000998924
-133232	-15.9872	0.0759845	0.0732351	0.0027494
-133598	5.4848	0.0803467	0.0727573	0.0075895
-133964	23.8912	0.0929027	0.072284	0.0206187
-134330	27.2512	0.125964	0.0718154	0.0541486
-134697	20.6464	0.208798	0.0713513	0.137446
-135063	15.6928	0.402682	0.0708917	0.33179
-135429	13.1072	0.840474	0.0704365	0.770037
-135795	4.1344	1.7727	0.0699857	1.70272
-136161	-11.4624	3.66187	0.0695392	3.59233
-136528	-19.4368	7.32327	0.0690969	7.25418
-136894	-7.0656	13.9975	0.0686589	13.9289
-137260	22.368	25.6517	0.068225	25.5835
-137626	58.4192	44.794	0.0677952	44.7262
-137992	100.8	74.5605	0.0673695	74.4931
-138359	159.174	118.363	0.0669478	118.296
-138725	237.862	178.731	0.06653	178.665
-139091	330.381	257.144	0.0661161	257.078
-139457	430.682	351.871	0.065706	351.805
-139824	540.333	458.012	0.0652998	457.946
-140190	658.803	566.915	0.0648973	566.85
-140556	772.192	667.179	0.0644985	667.114
-140922	858.054	746.014	0.0641034	745.95
-141288	899.814	792.777	0.0637119	792.713
-141655	892.736	800.354	0.063324	800.29
-142021	839.994	767.268	0.0629396	767.205
-142387	750.912	698.755	0.0625587	698.692
-142753	642.163	603.978	0.0621813	603.916
-143119	532.205	495.698	0.0618072	495.636
-143486	429.984	386.152	0.0614366	386.09
-143852	332.851	285.54	0.0610692	285.479
-144218	238.739	200.261	0.0607051	200.2
-144584	156.186	133.411	0.0603443	133.351
-144950	97.5424	84.2702	0.0599867	84.2102
-145317	64.48	50.51	0.0596322	50.4504
-145683	45.0432	28.7572	0.0592809	28.6979
-146049	25.6704	15.5011	0.0589327	15.4422
-146415	3.5904	7.97281	0.0585875	7.91422
-146782	-12.352	3.89426	0.0582454	3.83602
-147148	-10.8672	1.8221	0.0579063	1.7642
-147514	10.0032	0.8288	0.0575701	0.77123
-147880	36.544	0.375257	0.0572368	0.318021
-148246	45.9648	0.182732	0.0569064	0.125826
-148613	26.208	0.103913	0.0565789	0.0473346
-148979	-9.9712	0.0735608	0.0562541	0.0173066
-149345	-36.1664	0.0624183	0.0559322	0.00648611
-149711	-36.1536	0.0583062	0.055613	0.00269321
-150077	-18.656	0.0548729	0.0552966	-0.000423625
-150444	-2.784	0.0541626	0.0549828	-0.000820207
-150810	3.4944	0.0538013	0.0546717	-0.00087039
-151176	4.0384	0.0536449	0.0543633	-0.000718381
-151542	0.1408	0.0535043	0.0540574	-0.000553048
-151908	-11.6992	0.053431	0.0537541	-0.000323125
-152275	-26.1888	0.0532538	0.0534534	-0.00019954
-152641	-26.4064	0.0531249	0.0531551	-3.02484e-05
-153007	-4.2112	0.0529745	0.0528594	0.00011514
-153373	23.552	0.05268	0.0525661	0.000113842
-153740	30.5664	0.0524722	0.0522753	0.000196931
-154106	12.4928	0.0521766	0.0519868	0.000189784
-154472	-7.6736	0.0519042	0.0517008	0.000203397
-154838	-8.192	0.0516161	0.0514171	0.00019903
-155204	6.848	0.0514425	0.0511357	0.00030679
-155571	17.3056	0.0511384	0.0508566	0.000281788
-155937	14.3424	0.0508871	0.0505799	0.000307249
-156303	8.3968	0.0506457	0.0503053	0.00034036
-156669	11.2768	0.0504062	0.050033	0.000373237
-157035	20.2944	0.0501617	0.0497629	0.000398768
-157402	23.7696	0.0498998	0.049495	0.000404782
-157768	16.3008	0.0496579	0.0492292	0.000428644
-158134	3.0144	0.0494238	0.0489656	0.000458169
-158500	-8.8704	0.0491502	0.0487041	0.000446169
-158866	-16.736	0.0488419	0.0484446	0.000397252
-159233	-20.96	0.0485963	0.0481873	0.000408974
-159599	-20.2624	0.048273	0.047932	0.000341078
-159965	-12.9664	0.0480489	0.0476787	0.000370213
-160331	-1.9072	0.0477129	0.0474274	0.000285516
-160698	5.2096	0.0474711	0.0471781	0.000293053
-161064	2.0032	0.0471938	0.0469307	0.000263028
-161430	-9.0176	0.0468638	0.0466853	0.000178506
-161796	-16.5824	0.0465812	0.0464418	0.000139349
-162162	-11.04	0.0464184	0.0462002	0.00021815
-162529	4.896	0.0463378	0.0459605	0.000377307
-162895	18.08	0.0466927	0.0457227	0.000970022
-163261	19.1296	0.0483228	0.0454867	0.00283611
-163627	12.6016	0.0534649	0.0452525	0.00821238
-163993	10.24	0.0675793	0.0450201	0.0225592
-164360	16.0256	0.104071	0.0447895	0.0592815
-164726	22.6432	0.194577	0.0445607	0.150016
-165092	22.4768	0.404639	0.0443336	0.360305
-165458	16.512	0.875611	0.0441083	0.831502
-165825	9.6	1.87113	0.0438846	1.82725
-166191	2.88	3.87396	0.0436627	3.8303
-166557	-2.8608	7.72669	0.0434424	7.68325
-166923	0.4352	14.6975	0.0432238	14.6543
-167289	23.0528	26.776	0.0430069	26.733
-167656	63.2512	46.4587	0.0427916	46.4159
-168022	106.662	76.8181	0.0425779	76.7755
-168388	146.918	121.111	0.0423658	121.069
-168754	201.03	181.616	0.0421552	181.574
-169120	293.926	259.456	0.0419463	259.414
-169487	426.394	352.517	0.0417388	352.476
-169853	566.925	455.574	0.041533	455.533
-170219	680.032	559.826	0.0413286	559.785
-170585	756.493	654.057	0.0411257	654.016
-170951	809.062	725.979	0.0409244	725.938
-171318	842.861	765.795	0.0407245	765.754
-171684	841.811	767.364	0.0405261	767.324
-172050	788.57	730.133	0.0403291	730.093
-172416	690.08	659.91	0.0401335	659.87
-172783	575.181	566.067	0.0399394	566.027
-173149	468.864	461.02	0.0397467	460.98
-173515	375.258	356.36	0.0395553	356.32
-173881	286.541	261.46	0.0393654	261.421
-174247	201.088	181.925	0.0391768	181.886
-174614	128.006	120.24	0.0389895	120.201
-174980	76.9216	75.3403	0.0388036	75.3015
-175346	48.3456	44.791	0.0386191	44.7524
-175712	34.0928	25.2904	0.0384358	25.252
-176078	24.128	13.5151	0.0382538	13.4768
-176445	13.184	6.88923	0.0380732	6.85116
-176811	3.8336	3.3313	0.0378938	3.29341
-177177	2.432	1.53982	0.0377156	1.50211
-177543	9.1072	0.688659	0.0375388	0.651121
-177909	12.7104	0.303464	0.0373631	0.266101
-178276	1.4464	0.141557	0.0371887	0.104368
-178642	-19.8272	0.0757725	0.0370155	0.038757
-179008	-30.1568	0.0507915	0.0368436	0.0139479
-179374	-16.48	0.041746	0.0366728	0.00507325
-179741	7.8656	0.0385736	0.0365032	0.00207044
-180107	17.536	0.0374026	0.0363348	0.00106783
-180473	6.592	0.0369725	0.0361675	0.000805004
-180839	-5.504	0.0367054	0.0360014	0.000704016
-181205	-4.3392	0.0364959	0.0358364	0.000659467
-181572	5.2864	0.0363456	0.0356726	0.00067301
-181938	5.9072	0.03615	0.0355099	0.000640113
-182304	-2.8864	0.0359592	0.0353482	0.00061098
-182670	-6.432	0.0357105	0.0351877	0.000522773
-183036	-1.5488	0.0355591	0.0350283	0.000530764
-183403	-3.3216	0.0353207	0.03487	0.000450663
-183769	-19.968	0.0351118	0.0347127	0.000399052
-184135	-36.7232	0.0349692	0.0345565	0.000412708
-184501	-37.2416	0.0348295	0.0344014	0.000428071
-184867	-29.9392	0.0346877	0.0342473	0.000440459
-185234	-35.0976	0.0345465	0.0340942	0.000452266
-185600	-50.3872	0.0343589	0.0339422	0.000416752
-185966	-50.72	0.0342478	0.0337911	0.000456697
-186332	-26.624	0.0341011	0.0336411	0.000459993
-186699	-2.88	0.0339565	0.0334921	0.000464417
-187065	-5.1904	0.0337701	0.033344	0.000426097
-187431	-23.0144	0.0336249	0.0331969	0.000427956
-187797	-25.7728	0.0335595	0.0330509	0.000508675
-188163	-8.4416	0.0333915	0.0329057	0.000485755
-188530	2.0864	0.033241	0.0327615	0.000479503
-188896	-10.5344	0.0331074	0.0326183	0.000489121
-189262	-27.0464	0.0329815	0.032476	0.000505468
-189628	-22.816	0.0328813	0.0323346	0.000546642
-189994	-5.472	0.0328145	0.0321942	0.000620345
-190361	-1.6064	0.0328122	0.0320547	0.000757509
-190727	-15.104	0.0327176	0.031916	0.000801602
-191093	-21.664	0.0326538	0.0317783	0.000875503
-191459	-6.944	0.0327862	0.0316415	0.00114471
-191825	12.6464	0.0327717	0.0315055	0.00126617
-192192	16.7232	0.0325425	0.0313704	0.0011721
-192558	10.9632	0.0239619	0.0312362	-0.00727427
-192924	13.7024	0.0246261	0.0311029	-0.00647679
-193290	23.4752	0.0271435	0.0309704	-0.00382682
-193657	21.184	0.0333619	0.0308387	0.00252316
-194023	1.5168	0.0499716	0.0307079	0.0192637
-194389	-15.552	0.0907298	0.0305779	0.0601519
-194755	-9.9712	0.189375	0.0304487	0.158926
-195121	11.5456	0.415373	0.0303204	0.385052
-195488	26.9952	0.917657	0.0301928	0.887464
-195854	26.9568	1.97144	0.0300661	1.94137
-196220	20.1088	4.07742	0.0299401	4.04748
-196586	17.024	8.10096	0.029815	8.07114
-196952	21.1648	15.3316	0.0296906	15.3019
-197319	34.3744	27.7721	0.029567	27.7426
-197685	59.616	47.8975	0.0294442	47.868
-198051	96.4992	78.7067	0.0293221	78.6774
-198417	145.44	123.297	0.0292008	123.268
-198783	215.917	183.705	0.0290803	183.676
-199150	322.464	260.717	0.0289605	260.688
-199516	462.47	351.89	0.0288414	351.861
-199882	606.47	451.733	0.0287231	451.704
-200248	720.205	551.372	0.0286055	551.343
-200615	793.581	639.837	0.0284886	639.809
-200981	838.784	705.372	0.0283724	705.344
-201347	863.014	738.997	0.0282569	738.969
-201713	855.309	735.46	0.0281422	735.432
-202079	803.078	695.001	0.0280281	694.973
-202446	711.725	623.861	0.0279148	623.833
-202812	601.568	531.493	0.0278021	531.466
-203178	491.622	429.905	0.0276901	429.878
-203544	392.589	330.042	0.0275787	330.015
-203910	309.158	240.505	0.0274681	240.477
-204277	240.051	166.201	0.0273581	166.174
-204643	177.587	109.106	0.0272488	109.078
-205009	116.518	67.8989	0.0271401	67.8718
-205375	63.9872	40.0929	0.0270321	40.0658
-205741	33.2416	22.4833	0.0269247	22.4564
-206108	25.6512	11.9309	0.0268179	11.9041
-206474	26.5856	6.03857	0.0267118	6.01185
-206840	22.688	2.89734	0.0266063	2.87073
-207206	15.9872	1.32728	0.0265015	1.30078
-207573	14.8096	0.586545	0.0263972	0.560147
-207939	17.8304	0.253744	0.0262936	0.22745
-208305	16.5504	0.114834	0.0261906	0.0886432
-208671	7.2704	0.0588474	0.0260881	0.0327593
-209037	-1.0944	0.0377276	0.0259863	0.0117413
-209404	-3.4176	0.0301553	0.0258851	0.00427019
-209770	-6.4	0.0275117	0.0257845	0.00172726
-210136	-16.6208	0.0266302	0.0256844	0.000945813
-210502	-27.488	0.0262594	0.025585	0.000674468
-210868	-26.432	0.0260925	0.0254861	0.000606415
-211235	-12.0256	0.0259879	0.0253878	0.000600099
-211601	3.2064	0.0258667	0.02529	0.000576651
-211967	7.2064	0.0258109	0.0251928	0.000618028
-212333	-0.5184	0.0256523	0.0250962	0.000556091
-212700	-10.4064	0.0255768	0.0250001	0.000576655
-213066	-15.9488	0.0254709	0.0249046	0.000566328
-213432	-13.12	0.0253748	0.0248096	0.000565203
-213798	-1.728	0.0251428	0.0247152	0.000427576
-214164	11.008	0.0247705	0.0246213	0.000149202
-214531	14.0416	0.0247677	0.024528	0.000239713
-214897	4.4416	0.0246124	0.0244351	0.000177239
-215263	-6.7392	0.024541	0.0243428	0.000198212
-215629	-6.4128	0.0245759	0.024251	0.000324816
-215995	4.6912	0.0244361	0.0241598	0.000276276
-216362	13.9328	0.0244235	0.024069	0.000354438
-216728	14.1888	0.0243589	0.0239788	0.000380093
-217094	10.08	0.0242733	0.0238891	0.000384195
-217460	9.6384	0.0241724	0.0237998	0.000372577
-217826	9.5936	0.0241015	0.0237111	0.000390447
-218193	2.5344	0.0239937	0.0236229	0.000370874
-218559	-9.2544	0.0238667	0.0235351	0.000331586
-218925	-16.3136	0.023744	0.0234479	0.000296093
-219291	-16.4672	0.0235807	0.0233611	0.000219628
-219658	-16.7744	0.0234342	0.0232748	0.000159423
-220024	-19.168	0.0233124	0.023189	0.000123405
-220390	-14.208	0.0231789	0.0231036	7.52893e-05
-220756	3.4368	0.023035	0.0230188	1.61781e-05
-221122	20.4032	0.0228823	0.0229344	-5.21103e-05
-221489	17.1328	0.0227403	0.0228504	-0.000110105
-221855	-5.7472	0.0226647	0.022767	-0.000102268
-222221	-25.0112	0.0226706	0.0226839	-1.33056e-05
-222587	-21.3824	0.0228516	0.0226014	0.000250257
-222953	-2.5536	0.0236141	0.0225192	0.00109488
-223320	9.7408	0.0259101	0.0224376	0.00347253
-223686	7.648	0.032332	0.0223563	0.00997561
-224052	1.9008	0.0495593	0.0222756	0.0272837
-224418	1.1264	0.0932692	0.0221952	0.071074
-224784	-0.1088	0.199986	0.0221153	0.17787
-225151	-7.7376	0.444725	0.0220358	0.42269
-225517	-13.4144	0.986915	0.0219567	0.964958
-225883	-4.5184	2.11969	0.0218781	2.09782
-226249	13.5104	4.37207	0.0217999	4.35027
-226616	20.8448	8.65186	0.0217221	8.63013
-226982	9.3312	16.2999	0.0216447	16.2782
-227348	-2.9376	29.381	0.0215677	29.3594
-227714	8.3648	50.4129	0.0214912	50.3914
-228080	49.3248	82.4061	0.021415	82.3846
-228447	111.648	128.396	0.0213393	128.375
-228813	193.99	190.258	0.021264	190.236
-229179	303.616	268.513	0.021189	268.492
-229545	433.562	360.37	0.0211145	360.348
-229911	553.504	459.979	0.0210403	459.958
-230278	635.565	558.191	0.0209665	558.17
-230644	683.302	643.974	0.0208932	643.953
-231010	721.754	705.739	0.0208202	705.718
-231376	758.707	734.98	0.0207475	734.959
-231742	769.062	727.063	0.0206753	727.042
-232109	724.595	682.904	0.0206034	682.883
-232475	629.632	609.251	0.020532	609.23
-232841	517.114	515.852	0.0204608	515.832
-233207	413.485	414.662	0.0203901	414.641
-233574	319.418	316.347	0.0203197	316.327
-233940	226.451	229.075	0.0202497	229.054
-234306	140.166	157.292	0.0201801	157.272
-234672	76.8448	102.6	0.0201108	102.58
-235038	42.1056	63.4371	0.0200418	63.4171
-235405	23.4752	37.2129	0.0199732	37.1929
-235771	6.4768	20.7303	0.019905	20.7104
-236137	-9.3184	10.9252	0.0198371	10.9054
-236503	-14.7968	5.49095	0.0197696	5.47118
-236869	-7.1808	2.61453	0.0197024	2.59483
-237236	5.1008	1.18729	0.0196356	1.16765
-237602	13.4016	0.518835	0.019569	0.499266
-237968	18.2464	0.220728	0.0195029	0.201225
-238334	24.1216	0.0972487	0.019437	0.0778116
-238700	26.3296	0.0478395	0.0193715	0.028468
-239067	18.88	0.0293336	0.0193063	0.0100272
-239433	3.7056	0.0227649	0.0192415	0.00352342
-239799	-7.2448	0.0204974	0.019177	0.00132038
-240165	-3.52	0.0197563	0.0191128	0.0006435
-240532	8.9024	0.0194529	0.0190489	0.000403995
-240898	13.1968	0.0192999	0.0189854	0.00031451
-241264	3.04	0.019204	0.0189221	0.000281857
-241630	-8.5696	0.0191576	0.0188592	0.000298373
-241996	-7.2192	0.0190225	0.0187966	0.000225885
-242363	2.624	0.0189205	0.0187343	0.00018626
-242729	4.5888	0.0188138	0.0186723	0.000141466
-243095	-4.5568	0.018768	0.0186106	0.000157391
-243461	-8.8448	0.0187199	0.0185492	0.000170609
-243827	3.3536	0.0186587	0.0184882	0.0001705
-244194	19.7248	0.0186133	0.0184274	0.000185933
-244560	18.656	0.0185167	0.0183669	0.000149726
-244926	-1.6256	0.0184867	0.0183067	0.000179923
-245292	-21.184	0.0184317	0.0182469	0.000184868
-245658	-25.3824	0.0184128	0.0181873	0.000225505
-246025	-20.9664	0.018389	0.018128	0.000261034
-246391	-19.776	0.0183785	0.018069	0.000309536
-246757	-18.2912	0.0183516	0.0180103	0.00034136
-247123	-5.7984	0.0183576	0.0179518	0.000405745
-247490	14.6496	0.0182216	0.0178937	0.000327921
-247856	26.3616	0.0181604	0.0178358	0.000324567
-248222	21.44	0.0181027	0.0177782	0.00032447
-248588	11.2704	0.0180397	0.0177209	0.000318806
-248954	9.9136	0.0179454	0.0176639	0.000281511
-249321	16.5888	0.0178095	0.0176071	0.00020239
-249687	20.608	0.017708	0.0175506	0.000157379
-250053	16.1408	0.0176206	0.0174944	0.000126199
-250419	3.712	0.0174814	0.0174385	4.28639e-05
-250785	-15.9872	0.0173742	0.0173828	-8.57477e-06
-251152	-38.2528	0.0172334	0.0173274	-9.40414e-05
-251518	-47.808	0.0171308	0.0172723	-0.000141491
-251884	-30.4512	0.0170756	0.0172174	-0.000141795
-252250	5.2096	0.0171398	0.0171628	-2.29872e-05
-252616	30.0096	0.0173953	0.0171084	0.000286899
-252983	25.6768	0.018267	0.0170543	0.00121266
-253349	5.1072	0.0207754	0.0170005	0.00377497
-253715	-7.5648	0.0279969	0.0169469	0.01105
-254081	-8.128	0.0469926	0.0168935	0.0300991
-254448	-10.336	0.0947756	0.0168404	0.0779351
-254814	-17.8112	0.210674	0.0167876	0.193886
-255180	-16	0.474468	0.016735	0.457733
-255546	2.816	1.05467	0.0166827	1.03799
-255912	22.3808	2.25783	0.0166306	2.2412
-256279	21.9072	4.63261	0.0165787	4.61603
-256645	4.1856	9.11001	0.0165271	9.09349
-257011	-5.696	17.0509	0.0164757	17.0345
-257377	2.0992	30.5263	0.0164246	30.5099
-257743	24.8064	52.0187	0.0163737	52.0023
-258110	61.568	84.4452	0.0163231	84.4289
-258476	122.707	130.659	0.0162726	130.643
-258842	212.864	192.277	0.0162224	192.26
-259208	316.698	269.485	0.0161725	269.469
-259575	414.042	359.189	0.0161228	359.173
-259941	502.918	455.339	0.0160733	455.323
-260307	593.971	548.798	0.016024	548.782
-260673	683.034	628.865	0.0159749	628.849
-261039	743.354	684.55	0.0159261	684.534
-261406	750.918	708.165	0.0158775	708.149
-261772	709.203	695.904	0.0158291	695.888
-262138	641.261	649.353	0.015781	649.337
-262504	563.987	575.545	0.0157331	575.529
-262870	479.213	484.175	0.0156853	484.159
-263237	386.701	386.708	0.0156378	386.692
-263603	294.618	293.15	0.0155906	293.134
-263969	213.312	210.945	0.0155435	210.929
-264335	145.773	143.936	0.0154966	143.921
-264701	90.0032	93.3109	0.01545	93.2955
-265068	46.752	57.3393	0.0154036	57.3239
-265434	19.1296	33.4325	0.0153573	33.4172
-265800	5.1904	18.5121	0.0153113	18.4968
-266166	-3.3088	9.69709	0.0152655	9.68183
-266533	-12.576	4.84465	0.0152199	4.82943
-266899	-20.1856	2.29257	0.0151745	2.27739
-267265	-19.3408	1.03436	0.0151293	1.01924
-267631	-8.928	0.448673	0.0150843	0.433588
-267997	3.5072	0.188976	0.0150395	0.173937
-268364	9.2864	0.0820056	0.0149949	0.0670107
-268730	7.2512	0.039453	0.0149505	0.0245025
-269096	3.1104	0.0235951	0.0149063	0.00868876
-269462	1.1072	0.0179819	0.0148623	0.00311959
-269828	-0.544	0.0160219	0.0148185	0.00120342
-270195	-4.3264	0.0154297	0.0147748	0.000654895
-270561	-6.56	0.0151952	0.0147314	0.000463731
-270927	-0.4928	0.015085	0.0146882	0.00039681
-271293	13.8176	0.0150212	0.0146451	0.000376033
-271659	26.208	0.0149755	0.0146023	0.000373171
-272026	27.2576	0.0148939	0.0145596	0.000334303
-272392	18.1696	0.0147906	0.0145171	0.000273426
-272758	8.0576	0.0147602	0.0144748	0.000285342
-273124	3.584	0.0146834	0.0144327	0.000250684
-273491	4.928	0.0145862	0.0143908	0.000195398
-273857	9.3632	0.0145631	0.014349	0.000214094
-274223	13.6	0.0145335	0.0143075	0.000225981
-274589	13.3696	0.014483	0.0142661	0.00021687
-274955	7.8336	0.0144815	0.0142249	0.000256657
-275322	5.7408	0.0144595	0.0141839	0.00027562
-275688	18.688	0.0145014	0.014143	0.000358366
-276054	42.5472	0.0144687	0.0141023	0.000366364
-276420	53.632	0.0143566	0.0140618	0.000294722
-276786	34.1888	0.0144781	0.0140215	0.000456564
-277153	-1.2352	0.0144257	0.0139814	0.000444365
-277519	-17.7408	0.0144404	0.0139414	0.000498974
-277885	-1.1584	0.0144726	0.0139016	0.000571057
-278251	24.4992	0.0145313	0.0138619	0.000669363
-278617	27.3088	0.0143977	0.0138225	0.000575221
-278984	5.4336	0.0143282	0.0137832	0.000544974
-279350	-16.1664	0.0141321	0.013744	0.000388096
-279716	-21.3248	0.0141727	0.0137051	0.000467579
-280082	-18.5664	0.0139557	0.0136663	0.000289443
-280449	-21.2416	0.0138006	0.0136276	0.000172965
-280815	-27.0528	0.0136639	0.0135892	7.47645e-05
-281181	-25.9392	0.0135685	0.0135509	1.76687e-05
-281547	-17.2224	0.0134934	0.0135127	-1.93181e-05
-281913	-7.4112	0.0134493	0.0134747	-2.5388e-05
-282280	2.912	0.013476	0.0134369	3.90866e-05
-282646	16.8512	0.0137434	0.0133992	0.000344152
-283012	27.4048	0.0146993	0.0133617	0.00133757
-283378	20.6976	0.0174949	0.0133244	0.00417054
-283744	-2.5344	0.0254532	0.0132872	0.012166
-284111	-20.3776	0.0462673	0.0132501	0.0330172
-284477	-13.2288	0.0983496	0.0132132	0.0851364
-284843	12.608	0.223683	0.0131765	0.210506
-285209	34.1824	0.50694	0.0131399	0.4938
-285575	40.1344	1.12521	0.0131035	1.1121
-285942	39.36	2.39694	0.0130672	2.38388
-286308	42.56	4.88664	0.0130311	4.87361
-286674	47.1168	9.5403	0.0129951	9.52731
-287040	45.0432	17.7209	0.0129593	17.7079
-287407	39.4112	31.4757	0.0129236	31.4627
-287773	42.8992	53.2057	0.0128881	53.1928
-288139	67.1296	85.6688	0.0128527	85.6559
-288505	117.165	131.451	0.0128175	131.438
-288871	193.261	191.825	0.0127824	191.813
-289238	290.317	266.567	0.0127474	266.555
-289604	395.718	352.259	0.0127126	352.247
-289970	494.694	442.695	0.0126779	442.683
-290336	579.846	528.896	0.0126434	528.883
-290702	650.784	600.728	0.012609	600.716
-291069	702.88	648.103	0.0125748	648.091
-291435	722.099	664.451	0.0125407	664.439
-291801	695.661	647.04	0.0125067	647.028
-292167	626.054	598.254	0.0124729	598.241
-292533	530.541	525.37	0.0124392	525.357
-292900	428.467	437.871	0.0124057	437.858
-293266	331.898	346.451	0.0123722	346.439
-293632	246.042	260.153	0.012339	260.141
-293998	172.986	185.423	0.0123058	185.41
-294365	113.344	125.302	0.0122728	125.289
-294731	67.456	80.4486	0.0122399	80.4364
-295097	37.056	48.9521	0.0122071	48.9399
-295463	23.872	28.2616	0.0121745	28.2494
-295829	25.2608	15.4939	0.012142	15.4817
-296196	32.6272	8.0341	0.0121097	8.02199
-296562	35.8976	3.97374	0.0120774	3.96166
-296928	29.664	1.86122	0.0120453	1.84918
-297294	16.0576	0.831164	0.0120134	0.81915
-297660	3.1232	0.356969	0.0119815	0.344988
-298027	-0.8896	0.149	0.0119498	0.13705
-298393	4.3648	0.0643056	0.0119182	0.0523874
-298759	9.0368	0.0309189	0.0118867	0.0190322
-299125	3.2192	0.0184877	0.0118554	0.00663227
-299491	-8.5312	0.0142417	0.0118242	0.00241756
-299858	-8.672	0.0128078	0.0117931	0.00101473
-300224	12	0.0123908	0.0117621	0.00062868
-300590	38.9696	0.0122476	0.0117312	0.000516402
-300956	48.4352	0.0122115	0.0117005	0.000511009
-301323	36.2368	0.0122047	0.0116699	0.00053476
-301689	22.6496	0.0121499	0.0116394	0.000510477
-302055	25.2416	0.012088	0.011609	0.00047895
-302421	39.392	0.0119991	0.0115788	0.000420276
-302787	44.96	0.0119525	0.0115486	0.000403818
-303154	34.4256	0.0118537	0.0115186	0.000335102
-303520	19.2832	0.011767	0.0114887	0.000278288
-303886	12.3008	0.0116649	0.0114589	0.000205914
-304252	14.3104	0.0116132	0.0114293	0.0001839
-304618	19.7696	0.011566	0.0113997	0.000166253
-304985	24.9728	0.0115371	0.0113703	0.000166848
-305351	26.1184	0.0115219	0.0113409	0.000180931
-305717	17.7664	0.0114749	0.0113117	0.00016317
-306083	1.6448	0.0114805	0.0112826	0.000197863
-306450	-8.2368	0.0114416	0.0112536	0.000187924
-306816	0.6784	0.0114645	0.0112248	0.000239738
-307182	22.1312	0.0114063	0.011196	0.000210311
-307548	35.808	0.0114225	0.0111674	0.00025519
-307914	30.368	0.0114018	0.0111388	0.000263023
-308281	15.0016	0.0114	0.0111104	0.000289669
-308647	5.7088	0.0113906	0.011082	0.000308605
-309013	8.2432	0.0113246	0.0110538	0.000270808
-309379	17.9392	0.0112953	0.0110257	0.000269554
-309745	28.1088	0.0112054	0.0109977	0.000207726
-310112	31.616	0.0112173	0.0109698	0.000247471
-310478	21.216	0.0111106	0.010942	0.000168609
-310844	-0.9472	0.0110354	0.0109143	0.000121104
-311210	-16.8448	0.0110129	0.0108868	0.000126176
-311576	-7.3792	0.0109216	0.0108593	6.23163e-05
-311943	23.0208	0.0109036	0.0108319	7.16971e-05
-312309	46.4448	0.010929	0.0108046	0.000124328
-312675	41.1776	0.0113003	0.0107775	0.000522873
-313041	15.5776	0.0123499	0.0107504	0.00159945
-313408	-4.0512	0.0153844	0.0107234	0.00466095
-313774	-3.2	0.023896	0.0106966	0.0131994
-314140	10.5216	0.0461432	0.0106698	0.0354734
-314506	23.424	0.101418	0.0106432	0.0907745
-314872	27.3344	0.233523	0.0106166	0.222907
-315239	22.9568	0.530074	0.0105901	0.519484
-315605	16.1472	1.17257	0.0105638	1.16201
-315971	15.6736	2.48413	0.0105375	2.47359
-316337	27.7504	5.03145	0.0105113	5.02094
-316703	47.744	9.75273	0.0104853	9.74224
-317070	63.936	17.9802	0.0104593	17.9698
-317436	73.984	31.6862	0.0104334	31.6758
-317802	92.2176	53.1299	0.0104076	53.1195
-318168	133.786	84.8398	0.010382	84.8294
-318534	196.538	129.07	0.0103564	129.059
-318901	266.854	186.722	0.0103309	186.712
-319267	338.976	257.175	0.0103055	257.164
-319633	417.446	336.791	0.0102802	336.781
-319999	500.518	419.393	0.010255	419.383
-320366	573.843	496.413	0.0102298	496.403
-320732	624.896	558.563	0.0102048	558.552
-321098	652.621	596.909	0.0101799	596.899
-321464	656.064	606.131	0.010155	606.121
-321830	625.203	584.576	0.0101303	584.566
-322197	556.461	535.279	0.0101056	535.269
-322563	470.086	465.493	0.010081	465.483
-322929	394.349	384.188	0.0100565	384.178
-323295	332.051	300.999	0.0100321	300.989
-323661	260.595	223.804	0.0100078	223.794
-324028	171.251	157.949	0.00998362	157.939
-324394	91.3152	105.68	0.00995949	105.67
-324760	52.7936	67.1859	0.00993545	67.176
-325126	49.6448	40.4783	0.00991149	40.4684
-325492	45.28	23.1393	0.00988762	23.1294
-325859	19.3216	12.5612	0.00986383	12.5513
-326225	-12.064	6.4488	0.00984014	6.43896
-326591	-25.3632	3.15872	0.00981652	3.1489
-326957	-19.8784	1.46509	0.00979299	1.4553
-327324	-9.024	0.648157	0.00976955	0.638388
-327690	3.2128	0.275873	0.00974619	0.266127
-328056	19.4944	0.11435	0.00972291	0.104627
-328422	30.9568	0.0492588	0.00969972	0.0395591
-328788	22.0992	0.0239786	0.00967661	0.014302
-329155	-2.2272	0.0147063	0.00965358	0.00505267
-329521	-16.6144	0.0115247	0.00963064	0.00189408
-329887	-6.0864	0.0104927	0.00960777	0.0008849
-330253	13.7024	0.0100783	0.00958499	0.000493334
-330619	18.2336	0.0100063	0.00956229	0.000444016
-330986	6.3744	0.00994804	0.00953967	0.000408372
-331352	-2.1184	0.00987678	0.00951713	0.000359652
-331718	4.0384	0.00978145	0.00949467	0.000286784
-332084	16.352	0.00979671	0.00947228	0.000324426
-332450	23.7888	0.00973645	0.00944998	0.00028647
-332817	26.5216	0.00969613	0.00942776	0.00026837
-333183	27.4112	0.00962073	0.00940561	0.000215116
-333549	22.6048	0.00957385	0.00938354	0.000190304
-333915	9.9264	0.00956931	0.00936155	0.000207752
-334282	-1.9072	0.009548	0.00933964	0.000208361
-334648	-3.7568	0.00951298	0.00931781	0.000195175
-335014	-0.4416	0.00948024	0.00929605	0.000184199
-335380	-3.1808	0.00947461	0.00927436	0.000200249
-335746	-9.9136	0.00943504	0.00925275	0.000182283
-336113	-6.6816	0.00945442	0.00923122	0.000223198
-336479	9.2416	0.00943882	0.00920977	0.000229055
-336845	21.4912	0.00944383	0.00918838	0.000255446
-337211	17.8752	0.0093972	0.00916708	0.000230122
-337577	9.5936	0.00941486	0.00914584	0.000269024
-337944	15.6032	0.00939202	0.00912468	0.000267341
-338310	33.664	0.00933591	0.00910359	0.000232318
-338676	41.5552	0.00933458	0.00908258	0.000252005
-339042	27.968	0.00930671	0.00906164	0.000245072
-339408	8.1344	0.00931443	0.00904077	0.000273659
-339775	2.2784	0.00931775	0.00901997	0.000297781
-340141	9.216	0.00933003	0.00899925	0.000330786
-340507	11.7632	0.00934995	0.00897859	0.000371351
-340873	2.7456	0.00933612	0.00895801	0.000378106
-341240	-5.9456	0.00932362	0.0089375	0.000386122
-341606	-1.0496	0.00898231	0.00891706	6.52517e-05
-341972	14.7264	0.00901769	0.00889668	0.000121009
-342338	27.4304	0.0091413	0.00887638	0.000264912
-342704	28.512	0.00952275	0.00885615	0.000666596
-343071	22.272	0.0105978	0.00883599	0.00176183
-343437	18.304	0.01399	0.00881589	0.00517409
-343803	20.4416	0.0231425	0.00879586	0.0143466
-344169	22.6816	0.0467827	0.00877591	0.0380068
-344535	15.4944	0.105292	0.00875602	0.096536
-344902	-2.7328	0.243999	0.00873619	0.235263
-345268	-20.3328	0.553415	0.00871644	0.544699
-345634	-21.4912	1.21921	0.00869675	1.21052
-346000	-3.2	2.56881	0.00867713	2.56013
-346366	20.4544	5.17158	0.00865757	5.16292
-346733	34.6432	9.95925	0.00863808	9.95061
-347099	39.9488	18.2384	0.00861866	18.2298
-347465	48.5632	31.9186	0.0085993	31.91
-347831	71.6608	53.1403	0.00858001	53.1317
-348198	110.746	84.2416	0.00856078	84.2331
-348564	164.429	127.204	0.00854162	127.195
-348930	233.389	182.628	0.00852252	182.62
-349296	315.27	249.575	0.00850348	249.567
-349662	400.96	324.246	0.00848451	324.238
-350029	480.954	400.502	0.0084656	400.493
-350395	550.387	470.132	0.00844675	470.124
-350761	603.059	524.541	0.00842797	524.532
-351127	626.554	555.735	0.00840925	555.726
-351493	613.35	559.389	0.0083906	559.381
-351860	573.254	534.695	0.008372	534.687
-352226	523.354	485.175	0.00835347	485.167
-352592	464.646	418.033	0.00833499	418.024
-352958	382.144	341.794	0.00831658	341.786
-353325	275.296	265.237	0.00829823	265.229
-353691	175.232	195.309	0.00827994	195.3
-354057	117.152	136.489	0.00826171	136.481
-354423	99.776	90.4077	0.00824354	90.3994
-354789	88.256	56.8992	0.00822544	56.891
-355156	58.3104	33.9287	0.00820739	33.9205
-355522	22.112	19.1938	0.0081894	19.1856
-355888	3.8144	10.3099	0.00817146	10.3017
-356254	4.1728	5.23607	0.00815359	5.22792
-356620	3.8016	2.53753	0.00813578	2.5294
-356987	-5.8816	1.16423	0.00811802	1.15612
-357353	-13.0496	0.50972	0.00810033	0.50162
-357719	-7.8976	0.214925	0.00808269	0.206843
-358085	0.6656	0.0884893	0.0080651	0.0804242
-358451	-1.2032	0.0381494	0.00804758	0.0301018
-358818	-11.7888	0.0187846	0.00803011	0.0107545
-359184	-17.0816	0.0118025	0.0080127	0.00378982
-359550	-9.408	0.00937157	0.00799535	0.00137622
-359916	6.0928	0.00856744	0.00797805	0.000589392
-360283	21.152	0.00826928	0.00796081	0.000308472
-360649	31.4944	0.00821396	0.00794362	0.000270336
-361015	32.5248	0.00801244	0.00792649	8.59526e-05
-361381	24.7488	0.00802498	0.00790942	0.000115567
-361747	15.936	0.00787454	0.0078924	-1.78583e-05
-362114	13.76	0.00803913	0.00787543	0.000163702
-362480	17.9648	0.0079465	0.00785852	8.79825e-05
-362846	20.3776	0.00676626	0.00784167	-0.0010754
-363212	17.5936	0.0026336	0.00782486	-0.00519126
-363578	16.5696	0.0027537	0.00780812	-0.00505441
-363945	21.9904	0.00331894	0.00779142	-0.00447248
-364311	25.4848	0.00381884	0.00777478	-0.00395594
-364677	16.7232	0.00459914	0.00775819	-0.00315905
-365043	0.9408	0.00521895	0.00774166	-0.00252271
-365409	-6.3808	0.00603702	0.00772518	-0.00168816
-365776	-2.2144	0.00650025	0.00770875	-0.0012085
-366142	-1.1712	0.00698678	0.00769237	-0.000705589
-366508	-13.376	0.00731637	0.00767605	-0.000359679
-366874	-27.8464	0.00757706	0.00765977	-8.2718e-05
-367241	-26.72	0.00770439	0.00764355	6.08377e-05
-367607	-8.992	0.00779623	0.00762738	0.000168848
-367973	10.624	0.00785552	0.00761127	0.000244253
-368339	22.8928	0.00780903	0.0075952	0.000213827
-368705	31.6608	0.00780195	0.00757918	0.000222771
-369072	40.32	0.00776024	0.00756322	0.000197027
-369438	41.504	0.00772068	0.0075473	0.000173381
-369804	28.1728	0.00764977	0.00753144	0.00011833
-370170	6.0224	0.00757348	0.00751562	5.78646e-05
-370536	-11.3088	0.00746704	0.00749986	-3.28148e-05
-370903	-16.0768	0.00741022	0.00748414	-7.39227e-05
-371269	-10.5152	0.00734083	0.00746847	-0.000127639
-371635	-1.9136	0.00735014	0.00745285	-0.000102712
-372001	1.4464	0.00736558	0.00743729	-7.17046e-05
-372367	-5.6704	0.0075037	0.00742177	8.19325e-05
-372734	-18.1248	0.00784016	0.0074063	0.000433863
-373100	-20.896	0.00924118	0.00739087	0.00185031
-373466	-6.0352	0.0129605	0.0073755	0.00558497
-373832	12.9088	0.0231249	0.00736017	0.0157647
-374199	15.1168	0.0491944	0.00734489	0.0418495
-374565	1.216	0.113231	0.00732966	0.105902
-374931	-5.6512	0.264372	0.00731448	0.257057
-375297	10.4064	0.599335	0.00729934	0.592036
-375663	31.3728	1.31561	0.00728425	1.30833
-376030	35.4176	2.75826	0.00726921	2.75099
-376396	28.1792	5.52206	0.00725421	5.5148
-376762	30.4704	10.5702	0.00723926	10.563
-377128	43.7312	19.2382	0.00722435	19.231
-377494	51.2192	33.4541	0.0072095	33.4469
-377861	56.5056	55.3368	0.00719468	55.3296
-378227	93.4336	87.15	0.00717992	87.1428
-378593	180.666	130.719	0.00716519	130.712
-378959	284.934	186.421	0.00715052	186.414
-379325	355.296	253.031	0.00713589	253.024
-379692	386.547	326.498	0.0071213	326.491
-380058	421.229	400.519	0.00710676	400.512
-380424	485.664	466.908	0.00709226	466.901
-380790	551.296	517.337	0.00707781	517.33
-381157	573.92	544.282	0.0070634	544.275
-381523	550.195	544.03	0.00704903	544.023
-381889	512.25	516.359	0.00703471	516.352
-382255	477.357	465.235	0.00702044	465.228
-382621	430.355	398.008	0.0070062	398.001
-382988	357.139	323.112	0.00699201	323.105
-383354	271.405	248.947	0.00697786	248.94
-383720	196.947	181.998	0.00696376	181.991
-384086	139.846	126.272	0.0069497	126.265
-384452	92.0384	83.031	0.00693568	83.0241
-384819	51.8464	51.8788	0.0069217	51.8718
-385185	25.248	30.7081	0.00690776	30.7012
-385551	12.0192	17.2443	0.00689387	17.2374
-385917	4.7808	9.19431	0.00688002	9.18744
-386283	0.5056	4.63434	0.00686621	4.62748
-386650	0.4096	2.22919	0.00685244	2.22234
-387016	-0.1216	1.01503	0.00683872	1.0082
-387382	-7.4624	0.440993	0.00682503	0.434168
-387748	-14.5216	0.18455	0.00681139	0.177739
-388115	-6.0544	0.0754833	0.00679778	0.0686856
-388481	14.9376	0.0323808	0.00678422	0.0255966
-388847	22.1504	0.015944	0.0067707	0.00917333
-389213	0.4736	0.0100741	0.00675722	0.00331689
-389579	-27.7952	0.00802171	0.00674378	0.00127794
-389946	-30.2464	0.00735682	0.00673038	0.00062644
-390312	-9.984	0.00715387	0.00671701	0.000436858
-390678	-1.6192	0.00709985	0.00670369	0.000396162
-391044	-20.4096	0.00702294	0.00669041	0.000332529
-391410	-39.9168	0.0069114	0.00667717	0.000234232
-391777	-31.2064	0.00684638	0.00666396	0.000182418
-392143	-4.4928	0.00682294	0.0066508	0.000172142
-392509	8.5888	0.00677641	0.00663767	0.000138737
-392875	1.3888	0.00676564	0.00662459	0.000141051
-393241	-3.9936	0.00673593	0.00661154	0.000124392
-393608	3.744	0.00673802	0.00659853	0.000139493
-393974	8.1728	0.00672798	0.00658556	0.000142422
-394340	-3.9936	0.00673606	0.00657263	0.000163437
-394706	-16.7936	0.00677304	0.00655973	0.000213314
-395073	-7.4816	0.00681224	0.00654687	0.000265367
-395439	17.4784	0.00678033	0.00653406	0.000246272
-395805	29.9456	0.00678623	0.00652127	0.000264955
-396171	20.3904	0.00671458	0.00650853	0.000206055
-396537	10.4256	0.0067165	0.00649582	0.000220676
-396904	20.448	0.00669899	0.00648315	0.000215837
-397270	40.7488	0.0066815	0.00647052	0.000210975
-397636	45.9136	0.00663882	0.00645793	0.000180898
-398002	28.2624	0.00662298	0.00644537	0.000177609
-398368	4.3712	0.00660499	0.00643285	0.000172149
-398735	-6.88	0.0065749	0.00642036	0.000154539
-399101	-3.168	0.00654872	0.00640791	0.000140807
-399467	4.8448	0.00650962	0.0063955	0.000114123
-399833	7.2512	0.00642885	0.00638312	4.57292e-05
-400200	2.8288	0.00637757	0.00637078	6.79622e-06
-400566	-2.1824	0.00630993	0.00635847	-4.85377e-05
-400932	-0.4992	0.00624042	0.0063462	-0.000105781
-401298	8.608	0.00616784	0.00633397	-0.000166127
-401664	18.0736	0.00607921	0.00632177	-0.000242555
-402031	20.512	0.00612202	0.0063096	-0.000187585
-402397	15.7056	0.00623438	0.00629748	-6.30992e-05
-402763	7.616	0.00673596	0.00628538	0.00045058
-403129	-2.112	0.00821756	0.00627332	0.00194424
-403495	-11.5136	0.012333	0.0062613	0.00607174
-403862	-12.2368	0.0232914	0.00624931	0.0170421
-404228	2.1888	0.0515094	0.00623735	0.045272
-404594	21.1904	0.12036	0.00622543	0.114134
-404960	22.5152	0.281461	0.00621354	0.275248
-405326	3.0208	0.636138	0.00620169	0.629937
-405693	-9.1456	1.3887	0.00618987	1.38251
-406059	13.0432	2.89512	0.00617809	2.88894
-406425	57.0176	5.76056	0.00616634	5.7544
-406791	82.7136	10.9564	0.00615462	10.9503
-407158	74.1696	19.8128	0.00614293	19.8066
-407524	60.5568	34.2292	0.00613128	34.2231
-407890	77.3312	56.2506	0.00611966	56.2445
-408256	124.038	88.0141	0.00610808	88.008
-408622	175.603	131.153	0.00609652	131.147
-408989	222.995	185.827	0.006085	185.821
-409355	279.923	250.579	0.00607352	250.573
-409721	351.648	321.23	0.00606206	321.224
-410087	420.198	391.491	0.00605064	391.485
-410453	467.821	453.404	0.00603925	453.397
-410820	496.358	499.095	0.00602789	499.089
-411186	511.507	521.648	0.00601656	521.642
-411552	503.405	517.982	0.00600527	517.977
-411918	461.088	488.396	0.00599401	488.39
-412284	397.536	437.132	0.00598278	437.126
-412651	339.13	371.478	0.00597158	371.472
-413017	291.578	299.566	0.00596041	299.56
-413383	236.781	229.257	0.00594927	229.251
-413749	168.013	166.474	0.00593817	166.468
-414116	107.334	114.72	0.00592709	114.714
-414482	75.0656	74.918	0.00591605	74.9121
-414848	58.6432	46.4909	0.00590504	46.485
-415214	31.5456	27.3287	0.00589406	27.3228
-415580	-5.2416	15.2402	0.00588311	15.2343
-415947	-23.936	8.06913	0.00587218	8.06326
-416313	-11.968	4.03831	0.00586129	4.03245
-416679	8.608	1.92897	0.00585043	1.92312
-417045	9.9648	0.87207	0.0058396	0.86623
-417411	-1.952	0.376191	0.0058288	0.370362
-417778	-2.3936	0.156384	0.00581803	0.150566
-418144	10.816	0.0635251	0.00580729	0.0577179
-418510	17.728	0.0271123	0.00579658	0.0213158
-418876	7.2832	0.0132902	0.0057859	0.00750427
-419242	-7.5392	0.00844939	0.00577525	0.00267414
-419609	-10.0352	0.00676064	0.00576463	0.000996015
-419975	-0.5632	0.00623868	0.00575404	0.000484644
-420341	9.92	0.00601566	0.00574347	0.000272186
-420707	16.1472	0.0059422	0.00573294	0.000209258
-421074	18.0736	0.005845	0.00572243	0.000122568
-421440	12.384	0.0058039	0.00571196	9.19458e-05
-421806	-0.9536	0.00577147	0.00570151	6.99573e-05
-422172	-13.1904	0.00571898	0.00569109	2.789e-05
-422538	-12.032	0.00569998	0.0056807	1.92779e-05
-422905	1.7792	0.00569235	0.00567034	2.20148e-05
-423271	11.7888	0.00569447	0.00566	3.44653e-05
-423637	6.7584	0.00570966	0.0056497	5.99663e-05
-424003	-5.312	0.00572043	0.00563942	8.10112e-05
-424369	-9.6064	0.00576009	0.00562917	0.000130915
-424736	-3.4688	0.00585086	0.00561895	0.000231913
-425102	3.5904	0.00583986	0.00560876	0.000231102
-425468	4.6784	0.00587493	0.00559859	0.000276339
-425834	2.0864	0.00592727	0.00558845	0.000338817
-426200	0.9856	0.00592388	0.00557834	0.000345541
-426567	3.616	0.00595569	0.00556826	0.000387429
-426933	9.8624	0.00571019	0.0055582	0.000151994
-427299	17.2864	0.00588103	0.00554817	0.000332855
-427665	20.352	0.00572675	0.00553817	0.000188585
-428032	15.1104	0.00572521	0.00552819	0.000197015
-428398	6.2592	0.0057098	0.00551825	0.000191551
-428764	2.432	0.00567777	0.00550833	0.000169445
-429130	2.8992	0.00562291	0.00549843	0.000124476
-429496	-3.4944	0.00555782	0.00548856	6.92513e-05
-429863	-19.968	0.00554272	0.00547872	6.39966e-05
-430229	-31.8592	0.00547801	0.00546891	9.10711e-06
-430595	-23.5328	0.00541667	0.00545912	-4.24504e-05
-430961	-0.7488	0.00533067	0.00544936	-0.000118689
-431327	15.168	0.00529017	0.00543962	-0.000149456
-431694	14.4896	0.00523982	0.00542991	-0.000190089
-432060	7.8528	0.00526534	0.00542023	-0.000154888
-432426	5.152	0.00539816	0.00541057	-1.24056e-05
-432792	-0.3968	0.00590651	0.00540094	0.000505568
-433158	-17.2096	0.00742997	0.00539133	0.00203864
-433525	-34.3744	0.011758	0.00538175	0.00637624
-433891	-31.9168	0.0234409	0.00537219	0.0180687
-434257	-9.3376	0.0529658	0.00536266	0.0476032
-434623	11.0784	0.124457	0.00535316	0.119104
-434990	13.4464	0.290725	0.00534368	0.285382
-435356	9.0688	0.653893	0.00533423	0.648559
-435722	12.064	1.41899	0.0053248	1.41366
-436088	20.2112	2.93636	0.00531539	2.93104
-436454	19.7056	5.79866	0.00530601	5.79335
-436821	11.104	10.9428	0.00529666	10.9375
-437187	12.5568	19.6329	0.00528733	19.6276
-437553	35.3088	33.6458	0.00527802	33.6405
-437919	70.24	54.844	0.00526874	54.8387
-438285	105.35	85.1124	0.00525949	85.1071
-438652	144.87	125.78	0.00525025	125.775
-439018	199.514	176.742	0.00524105	176.736
-439384	264.71	236.34	0.00523186	236.334
-439750	322.861	300.45	0.0052227	300.445
-440116	366.797	363.11	0.00521357	363.105
-440483	406.426	417.023	0.00520446	417.018
-440849	447.251	455.228	0.00519537	455.223
-441215	473.882	471.841	0.00518631	471.836
-441581	465.651	464.645	0.00517727	464.64
-441948	423.168	434.488	0.00516825	434.483
-442314	367.539	385.69	0.00515926	385.684
-442680	314.886	325.076	0.00515029	325.071
-443046	262.682	260.019	0.00514134	260.014
-443412	204.102	197.38	0.00513242	197.375
-443779	144.922	142.173	0.00512352	142.168
-444145	97.76	97.1911	0.00511464	97.186
-444511	65.12	62.9629	0.00510579	62.9578
-444877	38.2592	38.765	0.00509696	38.7599
-445243	11.84	22.6076	0.00508815	22.6025
-445610	-8.9664	12.5091	0.00507937	12.504
-445976	-18.5216	6.57189	0.00507061	6.56682
-446342	-20.0768	3.26353	0.00506187	3.25847
-446708	-19.9616	1.54736	0.00505315	1.54231
-447075	-17.4016	0.694543	0.00504446	0.689499
-447441	-7.2128	0.297713	0.00503579	0.292677
-447807	8.1984	0.123156	0.00502714	0.118129
-448173	17.1776	0.050126	0.00501851	0.0451075
-448539	11.7888	0.0217667	0.0050099	0.0167568
-448906	-1.2928	0.0110505	0.00500132	0.00604923
-449272	-6.816	0.00716532	0.00499276	0.00217256
-449638	3.0656	0.0059668	0.00498422	0.000982574
-450004	21.2288	0.00557072	0.0049757	0.000595011
-450370	31.776	0.00530509	0.00496721	0.000337879
-450737	27.5136	0.00522938	0.00495874	0.000270648
-451103	12.896	0.00518936	0.00495028	0.00023908
-451469	0.4864	0.00511235	0.00494185	0.000170493
-451835	-1.1648	0.00507169	0.00493345	0.000138242
-452201	4.352	0.00502082	0.00492506	9.57651e-05
-452568	6.1376	0.00494354	0.00491669	2.68514e-05
-452934	-0.2624	0.00491187	0.00490835	3.52539e-06
-453300	-6.0736	0.00488869	0.00490002	-1.13343e-05
-453666	-0.4096	0.00485654	0.00489172	-3.51777e-05
-454033	12.768	0.00486529	0.00488344	-1.81474e-05
-454399	16.0064	0.00488536	0.00487518	1.01796e-05
-454765	-0.1408	0.00488982	0.00486694	2.28807e-05
-455131	-21.9904	0.00491069	0.00485872	5.19653e-05
-455497	-26.5088	0.00494543	0.00485053	9.49017e-05
-455864	-8.5568	0.004959	0.00484235	0.000116652
-456230	13.0368	0.00501657	0.00483419	0.000182378
-456596	18.528	0.00504548	0.00482606	0.000219419
-456962	9.088	0.0050497	0.00481794	0.00023176
-457328	0.2432	0.00506874	0.00480985	0.000258894
-457695	-0.4032	0.00504657	0.00480177	0.000244791
-458061	0.6272	0.00503913	0.00479372	0.000245411
-458427	-2.3168	0.00504322	0.00478569	0.000257531
-458793	-4.1984	0.00499314	0.00477767	0.000215468
-459159	0.6592	0.00501895	0.00476968	0.000249272
-459526	6.3872	0.00494792	0.00476171	0.000186214
-459892	3.104	0.00484438	0.00475375	9.06226e-05
-460258	-6.2016	0.00478642	0.00474582	4.06023e-05
-460624	-6.8928	0.00476882	0.00473791	3.09168e-05
-460991	6.8352	0.00468701	0.00473001	-4.30032e-05
-461357	21.472	0.00461644	0.00472214	-0.000105704
-461723	20.7104	0.00456535	0.00471429	-0.000148939
-462089	7.1296	0.0045998	0.00470645	-0.000106655
-462455	-1.6192	0.00478673	0.00469864	8.80918e-05
-462822	3.4752	0.00532442	0.00469084	0.000633579
-463188	12.7424	0.00700487	0.00468306	0.00232181
-463554	14.0736	0.0116061	0.00467531	0.00693078
-463920	10.336	0.0239434	0.00466757	0.0192759
-464286	12.3008	0.0551105	0.00465985	0.0504506
-464653	19.6992	0.130051	0.00465215	0.125399
-465019	20.1984	0.303013	0.00464447	0.298368
-465385	9.1072	0.67815	0.00463681	0.673514
-465751	-0.032	1.46231	0.00462917	1.45768
-466117	9.0304	3.00489	0.00462154	3.00027
-466484	32.9088	5.89062	0.00461394	5.886
-466850	53.3184	11.0309	0.00460635	11.0263
-467216	60.4288	19.6366	0.00459878	19.632
-467582	64.3712	33.381	0.00459123	33.3764
-467949	80.2816	53.9666	0.0045837	53.9621
-468315	109.402	83.0545	0.00457619	83.0499
-468681	141.504	121.698	0.0045687	121.694
-469047	172.307	169.547	0.00456122	169.542
-469413	210.106	224.751	0.00455377	224.747
-469780	263.494	283.225	0.00454633	283.221
-470146	328.064	339.283	0.00453891	339.279
-470512	387.994	386.207	0.00453151	386.203
-470878	426.854	417.843	0.00452412	417.839
-471244	434.067	429.221	0.00451676	429.217
-471611	406.464	418.889	0.00450941	418.885
-471977	350.496	388.183	0.00450208	388.179
-472343	282.848	341.488	0.00449477	341.484
-472709	221.696	285.224	0.00448747	285.219
-473075	173.798	226.09	0.0044802	226.086
-473442	132.493	170.076	0.00447294	170.071
-473808	90.624	121.401	0.0044657	121.396
-474174	51.8208	82.2438	0.00445847	82.2393
-474540	25.6832	52.7964	0.00445127	52.792
-474907	14.3872	32.2147	0.00444408	32.2103
-475273	9.6192	18.6178	0.00443691	18.6134
-475639	2.7904	10.2089	0.00442976	10.2045
-476005	-6.0992	5.31533	0.00442262	5.31091
-476371	-11.5904	2.61572	0.0044155	2.6113
-476738	-11.1232	1.22924	0.0044084	1.22483
-477104	-7.1104	0.546938	0.00440131	0.542537
-477470	-3.0656	0.232579	0.00439424	0.228185
-477836	-0.9024	0.0956646	0.00438719	0.0912775
-478202	-1.5872	0.0388865	0.00438016	0.0345063
-478569	-5.408	0.0170106	0.00437314	0.0126375
-478935	-10.8608	0.00888576	0.00436614	0.00451962
-479301	-14.7712	0.00611635	0.00435916	0.00175719
-479667	-14.3872	0.00515389	0.00435219	0.000801698
-480033	-8.8128	0.00488017	0.00434524	0.000534928
-480400	0.2432	0.00473185	0.00433831	0.000393546
-480766	7.9936	0.00466899	0.00433139	0.000337596
-481132	8.5376	0.00465561	0.00432449	0.000331119
-481498	0.8768	0.00463651	0.00431761	0.000318901
-481865	-7.3984	0.00459571	0.00431074	0.000284974
-482231	-7.0784	0.00456318	0.00430389	0.00025929
-482597	0.9984	0.0045236	0.00429705	0.000226545
-482963	5.9712	0.00452631	0.00429024	0.000236075
-483329	1.2032	0.00450214	0.00428343	0.000218703
-483696	-6.1952	0.00447696	0.00427665	0.000200313
-484062	-5.8816	0.00446223	0.00426988	0.00019235
-484428	-0.3968	0.00445263	0.00426312	0.000189505
-484794	-1.8624	0.00445134	0.00425639	0.000194956
-485160	-13.6256	0.00442958	0.00424966	0.000179914
-485527	-22.9696	0.00445324	0.00424296	0.000210285
-485893	-17.408	0.00443192	0.00423627	0.000195648
-486259	-0.6976	0.00436192	0.00422959	0.000132329
-486625	13.6896	0.00437568	0.00422294	0.000152748
-486991	19.584	0.00437069	0.00421629	0.000154399
-487358	19.7056	0.00436056	0.00420966	0.000150895
-487724	14.7008	0.00436134	0.00420305	0.00015829
-488090	2.4384	0.00443537	0.00419646	0.00023891
-488456	-10.0224	0.00443316	0.00418988	0.000243282
-488823	-6.944	0.00446976	0.00418331	0.000286452
-489189	15.9104	0.00443939	0.00417676	0.000262625
-489555	39.968	0.00445519	0.00417023	0.000284959
-489921	42.6944	0.00450339	0.00416371	0.000339678
-490287	24.4992	0.00445512	0.00415721	0.000297917
-490654	6.0992	0.00402074	0.00415072	-0.00012998
-491020	1.2544	0.00385646	0.00414424	-0.000287779
-491386	3.552	0.00390284	0.00413779	-0.00023495
-491752	1.6192	0.00389573	0.00413134	-0.000235617
-492118	-4.5248	0.00390296	0.00412491	-0.000221953
-492485	-8.3904	0.00416281	0.0041185	4.4311e-05
-492851	-8.0128	0.00477249	0.0041121	0.000660383
-493217	-3.7184	0.00662312	0.00410572	0.0025174
-493583	7.2832	0.0117658	0.00409935	0.00766645
-493950	22.1824	0.0251918	0.004093	0.0210988
-494316	24.736	0.0589677	0.00408666	0.0548811
-494682	2.4064	0.139885	0.00408034	0.135805
-495048	-29.1008	0.325566	0.00407403	0.321492
-495414	-36.2368	0.726186	0.00406773	0.722118
-495781	-9.8112	1.55893	0.00406145	1.55487
-496147	18.8736	3.18777	0.00405519	3.18371
-496513	17.8496	6.21725	0.00404893	6.21321
-496879	-0.9024	11.5809	0.0040427	11.5769
-497245	1.2992	20.5056	0.00403648	20.5015
-497612	35.6032	34.6681	0.00403027	34.664
-497978	70.3872	55.7397	0.00402407	55.7357
-498344	79.1616	85.3091	0.00401789	85.3051
-498710	81.6256	124.302	0.00401173	124.298
-499076	117.574	172.205	0.00400558	172.201
-499443	190.592	226.984	0.00399944	226.98
-499809	260.544	284.419	0.00399332	284.415
-500175	291.949	338.775	0.00398721	338.771
-500541	290.317	383.427	0.00398112	383.423
-500908	283.674	412.464	0.00397504	412.46
-501274	285.101	421.263	0.00396897	421.26
-501640	286.125	408.761	0.00396292	408.757
-502006	276.16	376.616	0.00395688	376.612
-502372	251.578	329.405	0.00395085	329.402
-502739	209.549	273.541	0.00394484	273.537
-503105	150.24	215.581	0.00393884	215.577
-503471	88.1664	161.233	0.00393286	161.229
-503837	47.0208	114.423	0.00392689	114.419
-504203	34.3104	77.0693	0.00392093	77.0654
-504570	31.1808	49.1866	0.00391499	49.1827
-504936	16.9152	29.8397	0.00390906	29.8358
-505302	-3.6992	17.1451	0.00390314	17.1412
-505668	-9.7856	9.34716	0.00389724	9.34326
-506034	2.3936	4.8385	0.00389135	4.83461
-506401	10.7328	2.36724	0.00388547	2.36335
-506767	-3.7248	1.10609	0.00387961	1.10222
-507133	-31.392	0.489263	0.00387376	0.485389
-507499	-46.9824	0.206881	0.00386792	0.203013
-507866	-39.6992	0.08459	0.0038621	0.0807279
-508232	-19.7632	0.0341841	0.00385629	0.0303278
-508598	1.0944	0.0148735	0.00385049	0.0110231
-508964	20.4416	0.00773924	0.00384471	0.00389454
-509330	33.1264	0.00522725	0.00383894	0.00138832
-509697	25.2928	0.00446201	0.00383318	0.000628836
-510063	-6.4704	0.00420811	0.00382743	0.000380681
-510429	-40.8768	0.0041188	0.0038217	0.000297098
-510795	-46.6368	0.00415552	0.00381598	0.000339534
-511161	-19.6608	0.00417155	0.00381028	0.000361273
-511528	8.7104	0.00411482	0.00380458	0.000310235
-511894	9.216	0.00410697	0.0037989	0.000308069
-512260	-8.9024	0.00393	0.00379323	0.00013677
-512626	-13.12	0.00395427	0.00378758	0.00016669
-512992	6.1376	0.00386523	0.00378193	8.33002e-05
-513359	20.48	0.00390243	0.0037763	0.000126128
-513725	2.6304	0.00385911	0.00377069	8.84219e-05
-514091	-33.1008	0.00392017	0.00376508	0.000155091
-514457	-47.9936	0.00390791	0.00375949	0.000148423
-514824	-30.1056	0.00392456	0.00375391	0.00017065
-515190	-9.1264	0.00392351	0.00374834	0.000175174
-515556	-14.3808	0.0039026	0.00374278	0.00015982
-515922	-35.9296	0.00390251	0.00373724	0.000165265
-516288	-41.7472	0.00392871	0.00373171	0.000197001
-516655	-23.424	0.00389968	0.00372619	0.000173484
-517021	-5.1584	0.00390256	0.00372069	0.000181871
-517387	-7.1296	0.00383009	0.00371519	0.000114901
-517753	-19.2704	0.00387432	0.00370971	0.000164609
-518119	-20.5952	0.00384356	0.00370424	0.000139324
-518486	-10.7712	0.00384941	0.00369878	0.000150626
-518852	-7.2576	0.00385244	0.00369334	0.000159108
-519218	-17.4272	0.00385481	0.0036879	0.000166908
-519584	-29.184	0.00383476	0.00368248	0.000152282
-519950	-29.6576	0.0038132	0.00367707	0.000136131
-520317	-20.032	0.00378794	0.00367167	0.000116265
-520683	-7.8336	0.00377006	0.00366629	0.00010377
-521049	3.1744	0.00379393	0.00366091	0.000133016
-521415	8.736	0.00377976	0.00365555	0.000124209
-521782	0.1024	0.00381706	0.0036502	0.000166862
-522148	-22.5216	0.00382192	0.00364486	0.000177058
-522514	-44.352	0.00403367	0.00363953	0.000394139
-522880	-45.3568	0.00469456	0.00363422	0.00106034
-523246	-24.3264	0.00665581	0.00362891	0.00302689
-523613	0.9344	0.0121141	0.00362362	0.0084905
-523979	16.2496	0.026553	0.00361834	0.0229346
-524345	22.848	0.0626965	0.00361307	0.0590834
-524711	25.28	0.149156	0.00360782	0.145549
-525077	21.6512	0.346599	0.00360257	0.342996
-525444	13.1264	0.770968	0.00359733	0.767371
-525810	11.232	1.64987	0.00359211	1.64628
-526176	22.8416	3.36257	0.0035869	3.35898
-526542	35.5072	6.53646	0.0035817	6.53287
-526908	33.1584	12.1353	0.00357651	12.1317
-527275	25.184	21.418	0.00357133	21.4144
-527641	36.8896	36.0955	0.00356616	36.092
-528007	75.1104	57.8529	0.00356101	57.8493
-528373	115.258	88.2697	0.00355586	88.2662
-528740	135.264	128.219	0.00355073	128.216
-529106	149.344	177.089	0.00354561	177.085
-529472	188.73	232.704	0.0035405	232.7
-529838	254.918	290.688	0.0035354	290.685
-530204	312.576	345.169	0.00353031	345.166
-530571	331.872	389.439	0.00352523	389.436
-530937	320.192	417.604	0.00352016	417.601
-531303	302.944	425.14	0.00351511	425.137
-531669	288.192	411.175	0.00351006	411.172
-532035	265.728	377.58	0.00350503	377.577
-532402	232.883	329.132	0.0035	329.129
-532768	201.472	272.37	0.00349499	272.367
-533134	176.762	213.906	0.00348999	213.903
-533500	146.176	159.403	0.003485	159.4
-533866	98.2848	112.712	0.00348002	112.709
-534233	43.9168	75.6344	0.00347505	75.6309
-534599	7.3536	48.0863	0.00347009	48.0828
-534965	-0.6528	29.0601	0.00346514	29.0566
-535331	7.7056	16.6309	0.0034602	16.6274
-535698	13.9456	9.03028	0.00345527	9.02682
-536064	11.1232	4.65526	0.00345036	4.6518
-536430	3.1488	2.2679	0.00344545	2.26446
-536796	-5.664	1.05504	0.00344055	1.0516
-537162	-14.0416	0.464512	0.00343567	0.461076
-537529	-18.8032	0.195436	0.00343079	0.192005
-537895	-14.0416	0.0794357	0.00342593	0.0760098
-538261	0.9088	0.031849	0.00342107	0.0284279
-538627	14.2208	0.0137126	0.00341623	0.0102963
-538993	10.7968	0.0070509	0.0034114	0.00363951
-539360	-10.496	0.0047482	0.00340657	0.00134163
-539726	-30.784	0.00401571	0.00340176	0.000613951
-540092	-28.6784	0.00379771	0.00339695	0.000400756
-540458	-5.2416	0.00368022	0.00339216	0.000288057
-540825	12.7808	0.00362475	0.00338738	0.000237371
-541191	4.0768	0.0035923	0.00338261	0.000209696
-541557	-19.5136	0.00355827	0.00337784	0.000180429
-541923	-27.2768	0.00351317	0.00337309	0.000140084
-542289	-9.568	0.00350721	0.00336835	0.000138864
-542656	10.6432	0.00350869	0.00336361	0.000145072
-543022	11.2896	0.00342814	0.00335889	6.9246e-05
-543388	1.2288	0.00346972	0.00335418	0.000115545
-543754	3.2192	0.00347948	0.00334948	0.000130002
-544120	16.1856	0.00344351	0.00334478	9.87237e-05
-544487	16.4992	0.00349488	0.0033401	0.000154778
-544853	-3.296	0.00349556	0.00333543	0.000160138
-545219	-17.8496	0.00350272	0.00333076	0.000171954
-545585	-2.8032	0.00350023	0.00332611	0.00017412
-545951	28.3584	0.00349498	0.00332147	0.000173517
-546318	39.0272	0.00351824	0.00331683	0.000201414
-546684	15.6736	0.00350363	0.00331221	0.00019142
-547050	-17.1136	0.00355533	0.00330759	0.000247734
-547416	-29.8752	0.00350759	0.00330299	0.000204607
-547783	-19.4816	0.00351142	0.00329839	0.000213025
-548149	-3.0592	0.00347695	0.0032938	0.000183141
-548515	5.8112	0.00345005	0.00328923	0.000160822
-548881	4.6464	0.00340526	0.00328466	0.000120597
-549247	-4.32	0.00336148	0.0032801	8.13811e-05
-549614	-15.2768	0.00334596	0.00327556	7.04016e-05
-549980	-17.6576	0.00333045	0.00327102	5.94296e-05
-550346	-5.9328	0.00326549	0.00326649	-9.93842e-07
-550712	9.8944	0.00321176	0.00326197	-5.02095e-05
-551078	14.0544	0.00317467	0.00325746	-8.27868e-05
-551445	5.5488	0.00314032	0.00325296	-0.000112634
-551811	-1.088	0.00317577	0.00324846	-7.26907e-05
-552177	2.5984	0.00327487	0.00324398	3.08873e-05
-552543	8.2304	0.00352233	0.00323951	0.000282817
-552909	6.1824	0.00429831	0.00323504	0.00106327
-553276	1.1328	0.0064271	0.00323059	0.00319651
-553642	2.0096	0.01234	0.00322614	0.00911388
-554008	5.4976	0.0276706	0.00322171	0.0244489
-554374	2.4384	0.0658975	0.00321728	0.0626802
-554741	-3.4752	0.156371	0.00321286	0.153158
-555107	1.056	0.362702	0.00320845	0.359493
-555473	16.7552	0.80411	0.00320405	0.800906
-555839	27.1552	1.71406	0.00319966	1.71086
-556205	22.144	3.47869	0.00319528	3.4755
-556572	13.5104	6.73317	0.00319091	6.72998
-556938	16.5632	12.4446	0.00318654	12.4414
-557304	29.7664	21.8647	0.00318219	21.8615
-557670	39.2064	36.6784	0.00317784	36.6752
-558036	43.5008	58.5129	0.00317351	58.5097
-558403	55.5648	88.8567	0.00316918	88.8535
-558769	81.8752	128.455	0.00316486	128.452
-559135	115.174	176.565	0.00316055	176.562
-559501	150.874	230.891	0.00315625	230.888
-559867	194.554	287.024	0.00315195	287.021
-560234	243.603	339.156	0.00314767	339.153
-560600	275.206	380.784	0.00314339	380.781
-560966	269.235	406.327	0.00313913	406.323
-561332	238.368	411.631	0.00313487	411.628
-561699	217.85	396.161	0.00313062	396.158
-562065	222.31	362.012	0.00312638	362.009
-562431	226.854	314.02	0.00312215	314.017
-562797	198.982	258.594	0.00311792	258.591
-563163	138.829	202.1	0.00311371	202.097
-563530	77.9328	149.876	0.0031095	149.873
-563896	43.0784	105.462	0.0031053	105.459
-564262	32.3456	70.428	0.00310111	70.4249
-564628	26.0544	44.5591	0.00309693	44.556
-564994	11.2	26.8004	0.00309276	26.7973
-565361	-9.152	15.2642	0.0030886	15.2611
-565727	-25.0048	8.24888	0.00308444	8.2458
-566093	-32.0576	4.2323	0.00308029	4.22922
-566459	-34.6304	2.05218	0.00307615	2.04911
-566825	-37.984	0.950272	0.00307202	0.9472
-567192	-39.808	0.416483	0.0030679	0.413415
-567558	-33.0112	0.174462	0.00306379	0.171398
-567924	-18.3168	0.0706633	0.00305968	0.0676037
-568290	-8.6784	0.0282598	0.00305558	0.0252042
-568657	-13.9328	0.0121689	0.00305149	0.0091174
-569023	-24.7552	0.00628654	0.00304741	0.00323912
-569389	-23.3856	0.00427572	0.00304334	0.00123238
-569755	-7.4688	0.00360693	0.00303928	0.000567651
-570121	3.8272	0.00334999	0.00303522	0.000314771
-570488	-4.064	0.00327281	0.00303117	0.000241644
-570854	-18.368	0.00325109	0.00302713	0.000223964
-571220	-16.9216	0.0031724	0.0030231	0.000149305
-571586	-1.0368	0.0031771	0.00301907	0.000158031
-571952	6.3168	0.00312516	0.00301506	0.000110106
-572319	-5.3504	0.00309936	0.00301105	8.8308e-05
-572685	-19.584	0.00307495	0.00300705	6.78978e-05
-573051	-18.9824	0.00307948	0.00300306	7.6429e-05
-573417	-9.6704	0.00311026	0.00299907	0.000111186
-573783	-6.9568	0.00308894	0.00299509	9.38444e-05
-574150	-8.9024	0.0031155	0.00299113	0.000124376
-574516	-2.8096	0.00319407	0.00298717	0.000206907
-574882	7.5712	0.00311853	0.00298321	0.000135313
-575248	3.4112	0.00318879	0.00297927	0.000209521
-575615	-17.0368	0.00328343	0.00297533	0.000308095
-575981	-28.8	0.00272766	0.0029714	-0.000243744
-576347	-14.432	0.00279984	0.00296748	-0.000167637
-576713	8.1536	0.00289438	0.00296357	-6.91908e-05
-577079	10.2464	0.00291255	0.00295966	-4.71106e-05
-577446	-6.304	0.0028833	0.00295576	-7.24586e-05
-577812	-14.0672	0.00293254	0.00295187	-1.93281e-05
-578178	-3.1744	0.00297587	0.00294799	2.78853e-05
-578544	4.2368	0.00300002	0.00294411	5.59108e-05
-578910	-8.0384	0.00306269	0.00294025	0.000122446
-579277	-21.3504	0.00304256	0.00293639	0.000106171
-579643	-9.8048	0.0029491	0.00293253	1.65701e-05
-580009	16.7872	0.00296768	0.00292869	3.89945e-05
-580375	23.7312	0.00286515	0.00292485	-5.96962e-05
-580741	2.7264	0.00287112	0.00292102	-4.98979e-05
-581108	-12.9344	0.00286089	0.0029172	-5.63109e-05
-581474	4.928	0.00283332	0.00291338	-8.00659e-05
-581840	38.3488	0.00283565	0.00290958	-7.39245e-05
-582206	47.008	0.00289775	0.00290578	-8.03056e-06
-582573	22.6944	0.00316319	0.00290198	0.000261204
-582939	-3.1168	0.00401411	0.0028982	0.00111591
-583305	-5.888	0.00624711	0.00289442	0.00335269
-583671	-0.1408	0.0123055	0.00289065	0.00941483
-584037	-13.2608	0.0282646	0.00288689	0.0253777
-584404	-42.1888	0.0674325	0.00288313	0.0645494
-584770	-55.3728	0.159682	0.00287938	0.156803
-585136	-35.2384	0.367766	0.00287564	0.36489
-585502	-2.4384	0.808834	0.00287191	0.805962
-585868	10.8224	1.70969	0.00286818	1.70683
-586235	1.1008	3.44014	0.00286447	3.43727
-586601	-6.8736	6.601	0.00286075	6.59814
-586967	8.2816	12.0931	0.00285705	12.0902
-587333	38.6176	21.0619	0.00285335	21.059
-587700	60.1408	35.0213	0.00284966	35.0184
-588066	64.0064	55.3825	0.00284598	55.3796
-588432	66.304	83.3751	0.0028423	83.3723
-588798	87.5136	119.492	0.00283863	119.489
-589164	128.96	162.85	0.00283497	162.847
-589531	173.216	211.156	0.00283132	211.153
-589897	204.122	260.305	0.00282767	260.302
-590263	220.403	305.053	0.00282403	305.051
-590629	229.152	339.712	0.00282039	339.709
-590995	232.358	359.595	0.00281677	359.592
-591362	225.843	361.407	0.00281315	361.404
-591728	209.664	345.11	0.00280954	345.108
-592094	192.634	312.933	0.00280593	312.93
-592460	182.112	269.388	0.00280233	269.385
-592826	172.813	220.172	0.00279874	220.169
-593193	151.245	170.802	0.00279516	170.799
-593559	112.262	125.738	0.00279158	125.736
-593925	67.3088	87.8386	0.00278801	87.8358
-594291	33.2224	58.2409	0.00278444	58.2381
-594658	15.072	36.5866	0.00278088	36.5838
-595024	3.584	21.8527	0.00277733	21.8499
-595390	-10.8992	12.3599	0.00277379	12.3571
-595756	-26.1824	6.6339	0.00277025	6.63113
-596122	-32.4992	3.38083	0.00276672	3.37806
-596489	-26.304	1.62833	0.0027632	1.62557
-596855	-15.0976	0.749289	0.00275968	0.746529
-597221	-7.9296	0.326312	0.00275617	0.323556
-597587	-5.2864	0.136069	0.00275267	0.133316
-597953	-1.3376	0.0550251	0.00274917	0.052276
-598320	5.8304	0.0220738	0.00274568	0.0193281
-598686	11.4304	0.00980134	0.0027422	0.00705915
-599052	11.4816	0.00522301	0.00273872	0.00248428
-599418	8.8896	0.00369861	0.00273525	0.000963356
-599784	9.0624	0.00319824	0.00273179	0.000466454
-600151	11.3536	0.0030392	0.00272833	0.000310872
-600517	10.5536	0.0029568	0.00272488	0.000231922
-600883	4.672	0.0029563	0.00272144	0.000234865
-601249	-2.272	0.00292703	0.002718	0.000209029
-601616	-4.5632	0.00292829	0.00271457	0.00021372
-601982	-0.256	0.00286485	0.00271114	0.000153702
-602348	8.6528	0.00286641	0.00270773	0.000158682
-602714	18.848	0.00283584	0.00270431	0.000131523
-603080	26.3168	0.00280319	0.00270091	0.000102282
-603447	27.072	0.0027873	0.00269751	8.97907e-05
-603813	20.2752	0.00279444	0.00269412	0.000100319
-604179	9.568	0.00275735	0.00269073	6.66198e-05
-604545	-0.3328	0.00279078	0.00268735	0.000103428
-604911	-7.0528	0.00277455	0.00268398	9.05653e-05
-605278	-8.6592	0.00278929	0.00268061	0.000108679
-605644	-2.1888	0.00284151	0.00267725	0.00016426
-606010	10.6752	0.00282764	0.0026739	0.000153744
-606376	19.0016	0.00285154	0.00267055	0.000180989
-606742	12.4928	0.00285637	0.00266721	0.000189163
-607109	-3.0848	0.002861	0.00266387	0.000197121
-607475	-7.7696	0.00286214	0.00266055	0.000201593
-607841	8.4544	0.00290487	0.00265722	0.000247651
-608207	30.1952	0.00290202	0.00265391	0.000248112
-608574	34.2848	0.00286016	0.0026506	0.000209563
-608940	19.8848	0.00280235	0.00264729	0.000155054
-609306	5.984	0.00278138	0.00264399	0.000137389
-609672	4.896	0.00273266	0.0026407	9.19624e-05
-610038	6.6048	0.0027227	0.00263742	8.52805e-05
-610405	-2.4768	0.00266922	0.00263414	3.50832e-05
-610771	-17.5488	0.00263537	0.00263086	4.507e-06
-611137	-23.904	0.00266039	0.0026276	3.2795e-05
-611503	-20.1216	0.00263435	0.00262433	1.00158e-05
-611869	-18.016	0.00262892	0.00262108	7.84023e-06
-612236	-20.8256	0.00278506	0.00261783	0.000167229
-612602	-17.6576	0.00312563	0.00261459	0.000511044
-612968	-4.1536	0.0039423	0.00261135	0.00133095
-613334	5.6128	0.00631028	0.00260812	0.00370216
-613700	-0.8384	0.0126616	0.00260489	0.0100567
-614067	-13.9392	0.0291319	0.00260168	0.0265302
-614433	-11.8976	0.0694821	0.00259846	0.0668836
-614799	9.696	0.163462	0.00259525	0.160867
-615165	32.8704	0.373046	0.00259205	0.370453
-615532	40.8704	0.812369	0.00258886	0.80978
-615898	34.1248	1.69887	0.00258567	1.69629
-616264	20.608	3.38063	0.00258249	3.37805
-616630	4.7488	6.41348	0.00257931	6.4109
-616996	-7.1424	11.6123	0.00257614	11.6097
-617363	-2.5984	19.9858	0.00257297	19.9833
-617729	23.3216	32.8308	0.00256981	32.8282
-618095	57.2672	51.2871	0.00256666	51.2845
-618461	83.1296	76.2638	0.00256351	76.2612
-618827	103.725	107.948	0.00256036	107.946
-619194	132.915	145.304	0.00255723	145.302
-619560	168.634	186.071	0.0025541	186.069
-619926	191.597	226.553	0.00255097	226.551
-620292	194.746	262.238	0.00254785	262.236
-620658	194.88	288.465	0.00254474	288.463
-621025	204.333	301.651	0.00254163	301.649
-621391	207.654	299.531	0.00253853	299.529
-621757	185.261	282.627	0.00253543	282.625
-622123	149.28	253.266	0.00253234	253.264
-622490	130.381	215.5	0.00252925	215.497
-622856	129.856	174.11	0.00252617	174.108
-623222	112.333	133.552	0.0025231	133.55
-623588	57.2352	97.2243	0.00252003	97.2218
-623954	-5.312	67.1775	0.00251697	67.175
-624321	-30.6752	44.0641	0.00251391	44.0616
-624687	-16.7424	27.3865	0.00251086	27.384
-625053	0.416	16.1891	0.00250781	16.1866
-625419	1.3376	9.06303	0.00250477	9.06053
-625785	3.6928	4.81581	0.00250174	4.81331
-626152	21.76	2.43035	0.00249871	2.42785
-626518	35.9488	1.15944	0.00249568	1.15694
-626884	23.1104	0.528774	0.00249266	0.526281
-627250	-5.792	0.228543	0.00248965	0.226053
-627616	-17.1264	0.094808	0.00248664	0.0923214
-627983	-2.1824	0.0383892	0.00248364	0.0359056
-628349	14.2592	0.0157598	0.00248064	0.0132791
-628715	14.944	0.00726637	0.00247765	0.00478872
-629081	14.2592	0.00426669	0.00247466	0.00179203
-629448	29.1328	0.00321427	0.00247168	0.000742589
-629814	46.2016	0.00289563	0.00246871	0.000426922
-630180	39.4752	0.00277564	0.00246574	0.0003099
-630546	11.1104	0.00273998	0.00246277	0.000277207
-630912	-7.84	0.00271276	0.00245981	0.000252946
-631279	1.6448	0.00268562	0.00245686	0.000228763
-631645	23.8656	0.00264208	0.00245391	0.000188172
-632011	32.64	0.00263953	0.00245097	0.000188558
-632377	23.1488	0.00260153	0.00244803	0.000153501
-632743	9.6768	0.00257914	0.0024451	0.000134042
-633110	3.0208	0.00256162	0.00244217	0.000119455
-633476	2.8544	0.00254875	0.00243925	0.000109506
-633842	6.9504	0.00252247	0.00243633	8.61374e-05
-634208	14.0032	0.00251095	0.00243342	7.75271e-05
-634575	18.016	0.00255488	0.00243051	0.000124364
-634941	12.1152	0.00254708	0.00242761	0.000119465
-635307	0.16	0.00256134	0.00242471	0.000136627
-635673	-5.3952	0.00251368	0.00242182	9.18569e-05
-636039	-1.2992	0.00256848	0.00241894	0.000149541
-636406	0.1792	0.00253541	0.00241606	0.000119349
-636772	-10.592	0.00260315	0.00241318	0.00018997
-637138	-24	0.00257323	0.00241031	0.000162918
-637504	-22.2848	0.0026009	0.00240745	0.000193455
-637870	-3.7504	0.0026045	0.00240459	0.00019991
-638237	14.112	0.00260062	0.00240173	0.000198891
-638603	16.8704	0.00261154	0.00239888	0.000212657
-638969	10.5216	0.00266604	0.00239604	0.000270002
-639335	7.9488	0.00264936	0.0023932	0.000256169
-639701	13.8688	0.00253114	0.00239036	0.000140777
-640068	20	0.00237845	0.00238753	-9.08359e-06
-640434	16.9856	0.00234511	0.00238471	-3.95945e-05
-640800	5.7856	0.00235826	0.00238189	-2.36279e-05
-641166	-2.8544	0.00242985	0.00237907	5.07748e-05
-641533	1.8048	0.00243974	0.00237626	6.34755e-05
-641899	19.52	0.00247027	0.00237346	9.68171e-05
-642265	37.1456	0.00257658	0.00237066	0.00020592
-642631	40.7232	0.00286342	0.00236786	0.000495562
-642997	30.176	0.00375029	0.00236507	0.00138521
-643364	19.584	0.00622989	0.00236229	0.0038676
-643730	16.0384	0.0128357	0.00235951	0.0104762
-644096	10.752	0.0299059	0.00235673	0.0275492
-644462	-3.8016	0.0711901	0.00235396	0.0688361
-644828	-14.2656	0.166565	0.0023512	0.164214
-645195	0.7232	0.377178	0.00234844	0.37483
-645561	36.4352	0.813974	0.00234568	0.811628
-645927	57.6192	1.68538	0.00234293	1.68304
-646293	39.5008	3.31896	0.00234018	3.31662
-646659	2.6368	6.2278	0.00233744	6.22546
-647026	-9.4336	11.1472	0.00233471	11.1449
-647392	17.056	18.9607	0.00233197	18.9584
-647758	52.9728	30.7666	0.00232925	30.7643
-648124	68.2048	47.4625	0.00232652	47.4602
-648491	69.4336	69.675	0.00232381	69.6726
-648857	84.1984	97.3317	0.0023211	97.3294
-649223	120.102	129.278	0.00231839	129.275
-649589	157.05	163.31	0.00231568	163.307
-649955	176.301	196.127	0.00231299	196.125
-650322	180.602	223.893	0.00231029	223.891
-650688	181.722	242.867	0.0023076	242.864
-651054	181.939	250.429	0.00230492	250.427
-651420	176.448	245.193	0.00230224	245.19
-651786	164.973	228.119	0.00229957	228.116
-652153	150.906	201.563	0.0022969	201.56
-652519	133.6	169.118	0.00229423	169.116
-652885	110.906	134.735	0.00229157	134.733
-653251	87.2576	101.927	0.00228891	101.925
-653617	70.1312	73.1841	0.00228626	73.1818
-653984	58.9568	49.8798	0.00228361	49.8775
-654350	46.3104	32.2784	0.00228097	32.2761
-654716	31.008	19.7928	0.00227833	19.7905
-655082	20.2688	11.5474	0.0022757	11.5451
-655449	15.6864	6.38041	0.00227307	6.37813
-655815	7.2832	3.34709	0.00227045	3.34482
-656181	-10.656	1.66812	0.00226783	1.66585
-656547	-26.3296	0.786116	0.00226521	0.783851
-656913	-24.064	0.354466	0.0022626	0.352204
-657280	-7.2448	0.151691	0.00226	0.149431
-657646	5.2928	0.0625483	0.00225739	0.0602909
-658012	5.8176	0.0254305	0.0022548	0.0231757
-658378	6.8224	0.0107298	0.0022522	0.00847761
-658744	18.0032	0.0053307	0.00224962	0.00308108
-659111	27.7184	0.00341111	0.00224703	0.00116407
-659477	19.9552	0.00282212	0.00224445	0.000577668
-659843	1.9904	0.00268083	0.00224188	0.000438949
-660209	-0.4416	0.00268045	0.00223931	0.00044114
-660575	20.608	0.00270061	0.00223674	0.000463872
-660942	42.2592	0.00268734	0.00223418	0.000453162
-661308	39.4432	0.00222591	0.00223162	-5.71817e-06
-661674	17.632	0.00219647	0.00222907	-3.26012e-05
-662040	5.4144	0.00225761	0.00222652	3.10905e-05
-662407	17.152	0.00215295	0.00222398	-7.10324e-05
-662773	35.0144	0.00218572	0.00222144	-3.57162e-05
-663139	32.0704	0.00226705	0.0022189	4.81489e-05
-663505	5.7216	0.00230749	0.00221637	9.11136e-05
-663871	-18.7712	0.00225167	0.00221385	3.78209e-05
-664238	-16.768	0.00227284	0.00221132	6.15124e-05
-664604	9.1392	0.00225409	0.00220881	4.52865e-05
-664970	33.0112	0.00226213	0.00220629	5.58343e-05
-665336	33.6	0.00225987	0.00220378	5.60876e-05
-665702	15.232	0.00229905	0.00220128	9.7772e-05
-666069	-1.3632	0.00229908	0.00219878	0.000100306
-666435	-5.3952	0.00232382	0.00219628	0.000127537
-666801	-6.1376	0.00233298	0.00219379	0.00013919
-667167	-14.8416	0.00232562	0.0021913	0.000134325
-667533	-25.3056	0.00234208	0.00218882	0.00015326
-667900	-22.0928	0.00231812	0.00218634	0.000131779
-668266	-5.2608	0.00230632	0.00218386	0.000122462
-668632	7.1488	0.00231385	0.00218139	0.000132455
-668998	5.2736	0.00227141	0.00217892	9.2484e-05
-669365	3.1104	0.00227963	0.00217646	0.000103166
-669731	16.6272	0.00228149	0.002174	0.000107489
-670097	35.2448	0.00227493	0.00217155	0.00010338
-670463	32.928	0.00228482	0.0021691	0.000115729
-670829	6.9632	0.00231447	0.00216665	0.000147821
-671196	-13.3184	0.00232544	0.00216421	0.000161227
-671562	-5.1328	0.00233738	0.00216177	0.000175607
-671928	16.448	0.00238976	0.00215934	0.000230426
-672294	21.3248	0.00247599	0.00215691	0.000319085
-672660	8.384	0.00281588	0.00215448	0.000661403
-673027	5.696	0.00371744	0.00215206	0.00156539
-673393	25.7472	0.00634315	0.00214964	0.00419351
-673759	43.3088	0.0132217	0.00214723	0.0110745
-674125	29.344	0.0309517	0.00214482	0.0288069
-674491	-6.4832	0.0735214	0.00214241	0.0713789
-674858	-26.848	0.171062	0.00214001	0.168922
-675224	-14.4768	0.384583	0.00213762	0.382445
-675590	9.088	0.823436	0.00213522	0.821301
-675956	15.7248	1.69037	0.00213283	1.68824
-676323	5.728	3.29864	0.00213045	3.29651
-676689	1.1712	6.13091	0.00212807	6.12878
-677055	13.7472	10.8637	0.00212569	10.8616
-677421	32.2752	18.2869	0.00212332	18.2848
-677787	40.5504	29.3499	0.00212095	29.3478
-678154	37.7152	44.7675	0.00211858	44.7654
-678520	36.6848	64.9531	0.00211622	64.951
-678886	48.0704	89.6405	0.00211386	89.6384
-679252	70.4768	117.589	0.00211151	117.587
-679618	94.9632	146.645	0.00210916	146.643
-679985	115.437	173.812	0.00210681	173.81
-680351	132.864	195.764	0.00210447	195.762
-680717	149.139	209.45	0.00210214	209.448
-681083	158.989	212.966	0.0020998	212.964
-681450	152.998	205.559	0.00209747	205.557
-681816	130.976	188.495	0.00209515	188.493
-682182	107.085	164.124	0.00209282	164.122
-682548	95.232	135.677	0.0020905	135.675
-682914	91.8272	106.479	0.00208819	106.477
-683281	81.2416	79.3465	0.00208588	79.3445
-683647	57.9584	56.1088	0.00208357	56.1068
-684013	33.3248	37.6609	0.00208127	37.6589
-684379	17.2736	24.0005	0.00207897	23.9984
-684745	5.0752	14.4905	0.00207667	14.4884
-685112	-9.344	8.32579	0.00207438	8.32372
-685478	-17.2672	4.53001	0.0020721	4.52794
-685844	-7.5712	2.34044	0.00206981	2.33837
-686210	9.4912	1.14901	0.00206753	1.14694
-686576	10.0864	0.533531	0.00206525	0.531466
-686943	-8.6784	0.237379	0.00206298	0.235316
-687309	-20.7168	0.100448	0.00206071	0.0983869
-687675	-8.2944	0.0412233	0.00205845	0.0391648
-688041	8.768	0.0169534	0.00205619	0.0148972
-688408	0.9728	0.00747474	0.00205393	0.00542081
-688774	-24.96	0.00402787	0.00205167	0.0019762
-689140	-31.6736	0.00282455	0.00204942	0.000775129
-689506	-6.0544	0.00240109	0.00204718	0.000353914
-689872	20.1472	0.00227755	0.00204493	0.000232619
-690239	14.6432	0.00221927	0.00204269	0.000176579
-690605	-10.7136	0.0022243	0.00204046	0.000183836
-690971	-19.52	0.00218844	0.00203823	0.000150209
-691337	-2.4384	0.00225222	0.002036	0.000216218
-691703	15.8976	0.00218836	0.00203377	0.000154591
-692070	17.952	0.00220886	0.00203155	0.000177305
-692436	14.5408	0.00223527	0.00202934	0.000205932
-692802	18.368	0.00225983	0.00202712	0.00023271
-693168	20.2688	0.00224897	0.00202491	0.000224054
-693534	8.8192	0.00220298	0.00202271	0.000180274
-693901	-3.0656	0.00219175	0.0020205	0.000171244
-694267	5.5104	0.00217897	0.0020183	0.000160663
-694633	27.6672	0.00221678	0.00201611	0.000200671
-694999	33.3568	0.00219253	0.00201392	0.000178619
-695366	12.3904	0.00217823	0.00201173	0.000166502
-695732	-9.2544	0.00218328	0.00200954	0.000173738
-696098	-5.76	0.00218553	0.00200736	0.000178168
-696464	14.1824	0.0021713	0.00200518	0.000166116
-696830	24.0448	0.00217949	0.00200301	0.000176477
-697197	17.9008	0.0021766	0.00200084	0.000175763
-697563	12.1856	0.00218146	0.00199867	0.000182787
-697929	14.2208	0.00214045	0.00199651	0.000143938
-698295	11.0144	0.00215353	0.00199435	0.000159186
-698661	-6.912	0.00214961	0.00199219	0.000157417
-699028	-26.2528	0.00216629	0.00199004	0.000176249
-699394	-28.7104	0.00218913	0.00198789	0.000201241
-699760	-16.3008	0.0021546	0.00198574	0.000168857
-700126	-6.4768	0.00218377	0.0019836	0.000200174
-700492	-7.8272	0.00224229	0.00198146	0.000260836
-700859	-13.4592	0.00224173	0.00197932	0.000262407
-701225	-14.3936	0.00232033	0.00197719	0.000343143
-701591	-9.6512	0.00248044	0.00197506	0.000505384
-701957	-1.6768	0.00239329	0.00197294	0.000420355
-702324	7.5072	0.00252224	0.00197081	0.000551423
-702690	12.928	0.00323349	0.0019687	0.0012648
-703056	8.544	0.00438606	0.00196658	0.00241948
-703422	-2.5408	0.00685241	0.00196447	0.00488794
-703788	-7.872	0.00239552	0.00196236	0.000433163
-704155	-1.4784	0.0206846	0.00196025	0.0187243
-704521	6.5536	0.064548	0.00195815	0.0625898
-704887	4.5056	0.16362	0.00195605	0.161664
-705253	-2.4448	0.376376	0.00195396	0.374422
-705619	-1.4848	0.808924	0.00195187	0.806972
-705986	8.4736	1.65178	0.00194978	1.64983
-706352	13.8624	3.19754	0.00194769	3.19559
-706718	7.136	5.88727	0.00194561	5.88532
-707084	-1.952	10.3267	0.00194354	10.3248
-707450	-2.0288	17.2017	0.00194146	17.1997
-707817	3.0592	27.3093	0.00193939	27.3074
-708183	3.0848	41.1949	0.00193732	41.193
-708549	1.2416	59.0946	0.00193526	59.0927
-708915	12.1216	80.6115	0.00193319	80.6095
-709282	40.2048	104.503	0.00193114	104.501
-709648	71.7376	128.756	0.00192908	128.754
-710014	92.0576	150.743	0.00192703	150.741
-710380	102.093	167.667	0.00192498	167.665
-710746	111.091	177.117	0.00192294	177.115
-711113	119.949	177.773	0.00192089	177.771
-711479	120.134	169.348	0.00191885	169.346
-711845	107.04	153.231	0.00191682	153.229
-712211	85.9584	131.625	0.00191479	131.623
-712577	64.4416	107.331	0.00191276	107.329
-712944	45.3568	83.068	0.00191073	83.0661
-713310	29.1904	61.0403	0.00190871	61.0384
-713676	17.4976	42.5546	0.00190669	42.5527
-714042	10.8352	28.1568	0.00190467	28.1549
-714408	6.9248	17.6865	0.00190266	17.6846
-714775	4.1344	10.523	0.00190065	10.5211
-715141	3.2896	5.95878	0.00189864	5.95688
-715507	3.1936	3.19462	0.00189664	3.19272
-715873	-1.6384	1.62649	0.00189464	1.62459
-716240	-13.2672	0.786965	0.00189264	0.785073
-716606	-22.7968	0.360268	0.00189065	0.358377
-716972	-18.1248	0.158255	0.00188866	0.156367
-717338	-0.352	0.0663274	0.00188667	0.0644407
-717704	14.2656	0.0272148	0.00188469	0.0253301
-718071	12.5824	0.0114231	0.00188271	0.00954036
-718437	-0.352	0.00539045	0.00188073	0.00350972
-718803	-9.5168	0.00318337	0.00187875	0.00130461
-719169	-5.6576	0.00239814	0.00187678	0.000521357
-719535	2.624	0.00216477	0.00187481	0.000289959
-719902	5.536	0.00201991	0.00187285	0.000147061
-720268	3.9168	0.00198602	0.00187088	0.000115138
-720634	4.6272	0.00196322	0.00186892	9.42918e-05
-721000	8.1216	0.00190937	0.00186697	4.24034e-05
-721366	7.36	0.00184779	0.00186501	-1.72189e-05
-721733	-1.6	0.00180769	0.00186306	-5.53678e-05
-722099	-12.96	0.00181623	0.00186112	-4.48878e-05
-722465	-17.3248	0.00178867	0.00185917	-7.04979e-05
-722831	-11.3984	0.00181611	0.00185723	-4.11197e-05
-723198	0.2624	0.00180511	0.00185529	-5.0178e-05
-723564	10.7776	0.00179277	0.00185336	-6.05873e-05
-723930	15.1936	0.0017797	0.00185142	-7.1725e-05
-724296	11.0912	0.00185969	0.0018495	1.0197e-05
-724662	-0.3904	0.00190176	0.00184757	5.4188e-05
-725029	-12.768	0.00181684	0.00184565	-2.88023e-05
-725395	-16.9344	0.00185792	0.00184373	1.41975e-05
-725761	-9.1328	0.0018573	0.00184181	1.54922e-05
-726127	4.2496	0.00188346	0.00183989	4.35692e-05
-726493	12.832	0.00198189	0.00183798	0.000143908
-726860	13.0112	0.0019539	0.00183607	0.000117826
-727226	10.0992	0.00204354	0.00183417	0.000209369
-727592	9.728	0.00198599	0.00183227	0.000153719
-727958	10.9632	0.00200796	0.00183037	0.000177595
-728325	10.0096	0.00200103	0.00182847	0.000172556
-728691	7.2832	0.00193229	0.00182658	0.000105716
-729057	7.648	0.00193686	0.00182469	0.000112167
-729423	11.7504	0.0018557	0.0018228	3.28992e-05
-729789	13.9904	0.00180251	0.00182092	-1.84064e-05
-730156	10.784	0.00171388	0.00181903	-0.000105153
-730522	6.4512	0.00165394	0.00181716	-0.000163215
-730888	7.392	0.00156655	0.00181528	-0.00024873
-731254	13.3632	0.00149694	0.00181341	-0.000316468
-731620	19.4176	0.00142372	0.00181154	-0.00038782
-731987	24.9088	0.00142783	0.00180967	-0.000381841
-732353	34.0608	0.00146368	0.00180781	-0.000344129
-732719	46.4448	0.00180644	0.00180594	4.96794e-07
-733085	53.0624	0.00282961	0.00180409	0.00102553
-733451	46.5152	0.00558346	0.00180223	0.00378123
-733818	31.5072	0.0128338	0.00180038	0.0110334
-734184	20.2048	0.0310303	0.00179853	0.0292318
-734550	19.0528	0.07371	0.00179668	0.0719133
-734916	24.7488	0.169669	0.00179484	0.167874
-735283	32.9856	0.375391	0.00179299	0.373598
-735649	39.1552	0.789495	0.00179116	0.787704
-736015	40.3072	1.58988	0.00178932	1.58809
-736381	32.8576	3.04161	0.00178749	3.03982
-736747	22.0672	5.53896	0.00178566	5.53717
-737114	22.0864	9.60978	0.00178383	9.60799
-737480	40.3968	15.833	0.001782	15.8312
-737846	64.9472	24.8555	0.00178018	24.8537
-738212	75.7952	37.0688	0.00177836	37.067
-738578	69.6448	52.5633	0.00177655	52.5615
-738945	64.3264	70.8596	0.00177473	70.8578
-739311	75.8528	90.7688	0.00177292	90.767
-739677	98.784	110.478	0.00177112	110.476
-740043	115.674	127.756	0.00176931	127.755
-740409	119.558	140.33	0.00176751	140.328
-740776	117.907	146.366	0.00176571	146.365
-741142	116.762	145.028	0.00176391	145.026
-741508	112.512	136.364	0.00176212	136.362
-741874	102.131	121.764	0.00176033	121.762
-742241	91.9488	103.204	0.00175854	103.202
-742607	88.8704	83.0238	0.00175675	83.022
-742973	88.3648	63.3777	0.00175497	63.376
-743339	79.7888	45.9322	0.00175319	45.9305
-743705	61.7344	31.5753	0.00175141	31.5736
-744072	44.16	20.5982	0.00174964	20.5965
-744438	34.72	12.7551	0.00174786	12.7533
-744804	30.6048	7.47949	0.00174609	7.47774
-745170	26.5984	4.1746	0.00174433	4.17285
-745536	23.968	2.20552	0.00174256	2.20378
-745903	25.5552	1.1067	0.0017408	1.10496
-746269	27.4368	0.527452	0.00173904	0.525713
-746635	23.104	0.23804	0.00173729	0.236303
-747001	14.88	0.103271	0.00173553	0.101535
-747367	13.1776	0.042864	0.00173378	0.0411302
-747734	22.112	0.0176304	0.00173203	0.0158983
-748100	31.7312	0.00755656	0.00173029	0.00582627
-748466	28.512	0.00384934	0.00172855	0.0021208
-748832	10.752	0.00248725	0.00172681	0.000760443
-749199	-10.4448	0.0020762	0.00172507	0.000351137
-749565	-23.1104	0.00189496	0.00172333	0.00017163
-749931	-23.9168	0.00186474	0.0017216	0.000143145
